AP Cora 5001
Software_Version;1.4.1
[SAMPLE]
Sample_Name;Sample_3_haversian6
Method;
[PARAMETERS]
Instrument_Type;Cora 5001
Instrument_SN;99119713
Last_SST;3/28/2024 12:19:13 PM +00:00
User_Name;labmanager
Measurement_Started;3/28/2024 4:08:03 PM
Measurement_Finished;3/28/2024 4:09:04 PM
Measurement_Saved;3/28/2024 4:09:04 PM
Wavelength;785
Laser_Power;30
Auto_Exposure;False
Exposure_Time;10000
Averaged_Spectra;3
Probe_Type;Regular Probe (785 nm)
Probe_SN;99101107
Dark_Background;True
User_Background_Spectrum;
Spike_Removal;True
Baseline_Correction;False
Smoothing;False
Normalization;None
[SPECTRUM QUALITY]
Quality_Saturation;False
Quality_SBR;NaN
Quality_Temperature;False
[SPECTRUM]
100.00;10220.03
102.00;10044.56
104.00;9836.00
106.00;9607.91
108.00;9329.84
110.00;9004.06
112.00;8649.81
114.00;8265.60
116.00;7894.01
118.00;7515.83
120.00;7136.88
122.00;6747.73
124.00;6391.28
126.00;6041.56
128.00;5718.30
130.00;5413.95
132.00;5151.02
134.00;4912.33
136.00;4689.19
138.00;4490.70
140.00;4309.62
142.00;4148.65
144.00;4009.83
146.00;3903.60
148.00;3811.81
150.00;3724.70
152.00;3650.72
154.00;3599.01
156.00;3548.72
158.00;3507.14
160.00;3476.63
162.00;3457.24
164.00;3439.02
166.00;3416.13
168.00;3399.45
170.00;3389.86
172.00;3381.87
174.00;3373.85
176.00;3360.62
178.00;3352.90
180.00;3346.04
182.00;3330.06
184.00;3316.53
186.00;3307.67
188.00;3305.74
190.00;3292.79
192.00;3276.13
194.00;3261.77
196.00;3256.21
198.00;3255.55
200.00;3239.59
202.00;3245.23
204.00;3243.30
206.00;3241.82
208.00;3242.57
210.00;3249.28
212.00;3245.69
214.00;3241.07
216.00;3242.45
218.00;3244.84
220.00;3233.40
222.00;3226.57
224.00;3230.23
226.00;3225.74
228.00;3230.89
230.00;3231.59
232.00;3222.68
234.00;3223.29
236.00;3217.40
238.00;3221.26
240.00;3230.00
242.00;3230.43
244.00;3230.36
246.00;3218.16
248.00;3225.93
250.00;3229.92
252.00;3233.12
254.00;3226.51
256.00;3228.95
258.00;3239.54
260.00;3245.11
262.00;3238.75
264.00;3240.32
266.00;3244.02
268.00;3243.55
270.00;3247.31
272.00;3241.79
274.00;3237.20
276.00;3244.39
278.00;3244.26
280.00;3243.41
282.00;3245.29
284.00;3240.12
286.00;3237.60
288.00;3239.94
290.00;3237.58
292.00;3229.45
294.00;3231.57
296.00;3228.54
298.00;3219.92
300.00;3216.72
302.00;3213.58
304.00;3212.00
306.00;3218.03
308.00;3226.48
310.00;3217.90
312.00;3210.41
314.00;3213.81
316.00;3205.97
318.00;3195.72
320.00;3197.13
322.00;3200.12
324.00;3205.94
326.00;3202.54
328.00;3207.35
330.00;3204.92
332.00;3199.91
334.00;3195.84
336.00;3191.57
338.00;3198.90
340.00;3199.17
342.00;3191.48
344.00;3193.04
346.00;3188.17
348.00;3181.36
350.00;3186.11
352.00;3194.26
354.00;3193.89
356.00;3187.54
358.00;3181.09
360.00;3176.26
362.00;3168.88
364.00;3160.40
366.00;3159.06
368.00;3157.51
370.00;3155.87
372.00;3145.78
374.00;3150.52
376.00;3148.51
378.00;3150.57
380.00;3152.74
382.00;3157.22
384.00;3160.57
386.00;3154.23
388.00;3153.60
390.00;3143.87
392.00;3144.00
394.00;3142.60
396.00;3140.96
398.00;3139.89
400.00;3137.58
402.00;3140.20
404.00;3136.18
406.00;3136.86
408.00;3151.17
410.00;3146.85
412.00;3144.63
414.00;3153.07
416.00;3148.47
418.00;3144.08
420.00;3155.11
422.00;3163.06
424.00;3155.35
426.00;3163.14
428.00;3169.64
430.00;3168.72
432.00;3166.36
434.00;3160.74
436.00;3153.33
438.00;3156.42
440.00;3162.76
442.00;3152.22
444.00;3152.86
446.00;3151.62
448.00;3141.07
450.00;3143.12
452.00;3132.20
454.00;3116.95
456.00;3117.28
458.00;3116.42
460.00;3119.85
462.00;3111.47
464.00;3104.11
466.00;3099.56
468.00;3101.40
470.00;3094.79
472.00;3075.68
474.00;3071.77
476.00;3066.57
478.00;3061.08
480.00;3049.91
482.00;3047.42
484.00;3057.00
486.00;3048.39
488.00;3049.58
490.00;3056.28
492.00;3063.58
494.00;3054.79
496.00;3058.27
498.00;3056.96
500.00;3049.24
502.00;3043.60
504.00;3033.04
506.00;3032.06
508.00;3031.02
510.00;3028.65
512.00;3028.34
514.00;3029.63
516.00;3027.18
518.00;3033.23
520.00;3034.65
522.00;3036.91
524.00;3046.77
526.00;3051.48
528.00;3045.01
530.00;3037.98
532.00;3039.57
534.00;3032.82
536.00;3027.35
538.00;3019.84
540.00;3022.73
542.00;3028.95
544.00;3020.97
546.00;3026.37
548.00;3018.15
550.00;3019.48
552.00;3017.90
554.00;3018.81
556.00;3016.42
558.00;3017.25
560.00;3015.70
562.00;3014.06
564.00;3016.09
566.00;3016.10
568.00;3024.73
570.00;3024.34
572.00;3020.66
574.00;3028.34
576.00;3031.11
578.00;3032.42
580.00;3034.83
582.00;3031.56
584.00;3031.18
586.00;3033.33
588.00;3018.96
590.00;3013.92
592.00;3011.25
594.00;3011.18
596.00;3009.03
598.00;3001.14
600.00;2991.99
602.00;2988.77
604.00;2976.96
606.00;2969.02
608.00;2964.20
610.00;2973.69
612.00;2969.76
614.00;2954.12
616.00;2950.18
618.00;2950.75
620.00;2947.76
622.00;2950.93
624.00;2936.96
626.00;2932.53
628.00;2924.42
630.00;2921.08
632.00;2910.96
634.00;2908.73
636.00;2907.92
638.00;2900.30
640.00;2891.31
642.00;2880.53
644.00;2881.82
646.00;2880.94
648.00;2867.34
650.00;2863.94
652.00;2872.02
654.00;2865.15
656.00;2865.32
658.00;2869.24
660.00;2870.98
662.00;2867.34
664.00;2846.56
666.00;2853.06
668.00;2854.53
670.00;2859.82
672.00;2858.40
674.00;2850.41
676.00;2844.27
678.00;2830.64
680.00;2824.97
682.00;2831.85
684.00;2831.33
686.00;2829.39
688.00;2831.59
690.00;2826.34
692.00;2828.74
694.00;2828.69
696.00;2826.82
698.00;2829.61
700.00;2822.14
702.00;2810.70
704.00;2811.29
706.00;2811.04
708.00;2800.84
710.00;2795.81
712.00;2787.74
714.00;2788.63
716.00;2782.35
718.00;2782.74
720.00;2783.40
722.00;2787.11
724.00;2777.82
726.00;2773.48
728.00;2784.63
730.00;2783.37
732.00;2768.05
734.00;2767.79
736.00;2769.80
738.00;2757.53
740.00;2761.68
742.00;2758.20
744.00;2754.31
746.00;2745.35
748.00;2743.69
750.00;2739.89
752.00;2731.92
754.00;2736.99
756.00;2737.16
758.00;2728.18
760.00;2723.83
762.00;2730.68
764.00;2728.61
766.00;2723.29
768.00;2723.10
770.00;2713.93
772.00;2704.33
774.00;2700.25
776.00;2698.00
778.00;2695.35
780.00;2690.21
782.00;2683.89
784.00;2681.07
786.00;2681.71
788.00;2682.34
790.00;2686.17
792.00;2682.06
794.00;2682.21
796.00;2674.13
798.00;2673.40
800.00;2671.72
802.00;2676.10
804.00;2684.09
806.00;2679.83
808.00;2687.66
810.00;2680.98
812.00;2684.49
814.00;2682.06
816.00;2681.25
818.00;2679.10
820.00;2671.10
822.00;2665.78
824.00;2656.48
826.00;2646.61
828.00;2644.80
830.00;2653.75
832.00;2652.33
834.00;2650.15
836.00;2649.55
838.00;2638.63
840.00;2633.77
842.00;2636.30
844.00;2646.92
846.00;2667.32
848.00;2674.49
850.00;2670.58
852.00;2655.02
854.00;2644.93
856.00;2651.34
858.00;2641.77
860.00;2632.52
862.00;2637.82
864.00;2634.65
866.00;2628.88
868.00;2630.23
870.00;2632.33
872.00;2632.40
874.00;2620.92
876.00;2622.96
878.00;2628.86
880.00;2621.06
882.00;2613.83
884.00;2614.30
886.00;2608.69
888.00;2607.55
890.00;2603.24
892.00;2602.13
894.00;2612.28
896.00;2606.88
898.00;2602.07
900.00;2600.36
902.00;2596.46
904.00;2582.20
906.00;2577.79
908.00;2580.17
910.00;2578.97
912.00;2590.53
914.00;2589.97
916.00;2601.16
918.00;2602.57
920.00;2600.85
922.00;2593.33
924.00;2595.89
926.00;2592.83
928.00;2596.43
930.00;2598.16
932.00;2586.81
934.00;2601.67
936.00;2616.11
938.00;2630.33
940.00;2647.20
942.00;2657.95
944.00;2683.22
946.00;2706.14
948.00;2759.25
950.00;2824.98
952.00;2879.22
954.00;2949.18
956.00;3016.98
958.00;3072.05
960.00;3095.49
962.00;3079.02
964.00;3031.66
966.00;2959.51
968.00;2867.38
970.00;2784.53
972.00;2720.25
974.00;2660.45
976.00;2608.02
978.00;2577.72
980.00;2558.61
982.00;2539.11
984.00;2537.36
986.00;2524.28
988.00;2512.36
990.00;2509.51
992.00;2508.43
994.00;2498.36
996.00;2501.16
998.00;2508.46
1000.00;2509.90
1002.00;2508.54
1004.00;2517.28
1006.00;2503.74
1008.00;2497.04
1010.00;2498.76
1012.00;2493.20
1014.00;2494.46
1016.00;2495.87
1018.00;2494.50
1020.00;2499.84
1022.00;2488.22
1024.00;2482.90
1026.00;2489.53
1028.00;2485.46
1030.00;2487.99
1032.00;2480.40
1034.00;2482.27
1036.00;2489.41
1038.00;2474.87
1040.00;2481.03
1042.00;2482.40
1044.00;2483.21
1046.00;2477.24
1048.00;2476.52
1050.00;2475.20
1052.00;2470.93
1054.00;2488.55
1056.00;2473.99
1058.00;2477.09
1060.00;2485.37
1062.00;2495.64
1064.00;2502.94
1066.00;2506.51
1068.00;2514.06
1070.00;2515.45
1072.00;2513.23
1074.00;2509.84
1076.00;2502.84
1078.00;2477.59
1080.00;2465.95
1082.00;2457.96
1084.00;2451.05
1086.00;2440.19
1088.00;2427.16
1090.00;2425.34
1092.00;2413.98
1094.00;2406.96
1096.00;2405.83
1098.00;2397.04
1100.00;2391.19
1102.00;2397.08
1104.00;2391.06
1106.00;2392.17
1108.00;2383.16
1110.00;2386.36
1112.00;2374.55
1114.00;2373.28
1116.00;2359.29
1118.00;2350.66
1120.00;2355.90
1122.00;2344.99
1124.00;2351.17
1126.00;2351.17
1128.00;2346.43
1130.00;2349.96
1132.00;2339.14
1134.00;2327.91
1136.00;2331.80
1138.00;2335.88
1140.00;2332.84
1142.00;2338.27
1144.00;2334.51
1146.00;2334.66
1148.00;2328.15
1150.00;2320.53
1152.00;2317.01
1154.00;2320.68
1156.00;2322.14
1158.00;2323.88
1160.00;2325.97
1162.00;2323.83
1164.00;2323.69
1166.00;2309.33
1168.00;2312.82
1170.00;2317.50
1172.00;2317.14
1174.00;2321.26
1176.00;2325.75
1178.00;2316.18
1180.00;2317.67
1182.00;2313.29
1184.00;2301.64
1186.00;2301.03
1188.00;2297.89
1190.00;2300.80
1192.00;2301.26
1194.00;2307.92
1196.00;2307.84
1198.00;2300.87
1200.00;2310.47
1202.00;2317.62
1204.00;2315.55
1206.00;2304.07
1208.00;2311.64
1210.00;2298.82
1212.00;2301.03
1214.00;2305.95
1216.00;2300.76
1218.00;2297.34
1220.00;2300.61
1222.00;2309.74
1224.00;2305.91
1226.00;2315.97
1228.00;2316.92
1230.00;2324.07
1232.00;2311.77
1234.00;2319.83
1236.00;2310.91
1238.00;2334.30
1240.00;2334.21
1242.00;2330.27
1244.00;2330.94
1246.00;2329.62
1248.00;2323.17
1250.00;2317.35
1252.00;2313.84
1254.00;2310.96
1256.00;2307.05
1258.00;2303.56
1260.00;2304.06
1262.00;2306.00
1264.00;2305.20
1266.00;2304.62
1268.00;2305.43
1270.00;2301.60
1272.00;2299.71
1274.00;2297.28
1276.00;2289.06
1278.00;2283.27
1280.00;2281.31
1282.00;2280.81
1284.00;2271.57
1286.00;2276.07
1288.00;2271.99
1290.00;2271.28
1292.00;2267.82
1294.00;2256.01
1296.00;2261.41
1298.00;2261.71
1300.00;2255.31
1302.00;2260.16
1304.00;2260.28
1306.00;2249.87
1308.00;2260.28
1310.00;2255.34
1312.00;2257.66
1314.00;2253.96
1316.00;2249.39
1318.00;2255.35
1320.00;2251.79
1322.00;2258.99
1324.00;2244.95
1326.00;2244.86
1328.00;2254.46
1330.00;2243.93
1332.00;2245.90
1334.00;2235.05
1336.00;2237.60
1338.00;2246.68
1340.00;2240.92
1342.00;2232.72
1344.00;2233.38
1346.00;2223.74
1348.00;2225.97
1350.00;2226.51
1352.00;2221.37
1354.00;2230.24
1356.00;2220.37
1358.00;2219.15
1360.00;2220.87
1362.00;2213.79
1364.00;2211.96
1366.00;2215.86
1368.00;2211.02
1370.00;2213.75
1372.00;2214.16
1374.00;2212.76
1376.00;2206.91
1378.00;2205.54
1380.00;2213.85
1382.00;2214.53
1384.00;2215.95
1386.00;2215.82
1388.00;2207.67
1390.00;2207.33
1392.00;2215.00
1394.00;2211.88
1396.00;2208.52
1398.00;2205.67
1400.00;2217.10
1402.00;2207.01
1404.00;2198.23
1406.00;2204.82
1408.00;2198.08
1410.00;2201.99
1412.00;2194.18
1414.00;2200.77
1416.00;2203.96
1418.00;2205.85
1420.00;2205.98
1422.00;2202.41
1424.00;2190.12
1426.00;2191.72
1428.00;2188.07
1430.00;2190.78
1432.00;2204.58
1434.00;2199.67
1436.00;2216.75
1438.00;2216.86
1440.00;2221.96
1442.00;2230.59
1444.00;2232.51
1446.00;2231.94
1448.00;2243.08
1450.00;2236.68
1452.00;2235.96
1454.00;2226.26
1456.00;2221.41
1458.00;2221.59
1460.00;2217.30
1462.00;2206.48
1464.00;2200.57
1466.00;2184.61
1468.00;2191.83
1470.00;2174.79
1472.00;2163.16
1474.00;2166.12
1476.00;2150.32
1478.00;2145.47
1480.00;2138.92
1482.00;2139.01
1484.00;2128.74
1486.00;2127.91
1488.00;2124.23
1490.00;2118.06
1492.00;2112.16
1494.00;2112.54
1496.00;2105.18
1498.00;2095.49
1500.00;2094.79
1502.00;2100.10
1504.00;2093.19
1506.00;2088.37
1508.00;2090.89
1510.00;2093.20
1512.00;2089.95
1514.00;2079.12
1516.00;2081.86
1518.00;2075.13
1520.00;2085.66
1522.00;2086.47
1524.00;2073.15
1526.00;2065.10
1528.00;2072.71
1530.00;2081.93
1532.00;2069.15
1534.00;2067.79
1536.00;2074.10
1538.00;2066.82
1540.00;2070.69
1542.00;2075.94
1544.00;2062.80
1546.00;2067.19
1548.00;2058.72
1550.00;2054.67
1552.00;2046.62
1554.00;2045.17
1556.00;2048.24
1558.00;2038.41
1560.00;2043.21
1562.00;2046.98
1564.00;2048.93
1566.00;2045.86
1568.00;2040.91
1570.00;2034.63
1572.00;2036.15
1574.00;2042.42
1576.00;2039.95
1578.00;2042.65
1580.00;2036.69
1582.00;2038.96
1584.00;2037.35
1586.00;2028.47
1588.00;2036.29
1590.00;2039.17
1592.00;2042.86
1594.00;2043.74
1596.00;2025.31
1598.00;2038.90
1600.00;2044.70
1602.00;2039.89
1604.00;2016.69
1606.00;2029.57
1608.00;2020.99
1610.00;2021.60
1612.00;2033.81
1614.00;2016.35
1616.00;2030.78
1618.00;2027.46
1620.00;2034.52
1622.00;2030.56
1624.00;2025.49
1626.00;2026.08
1628.00;2028.09
1630.00;2025.21
1632.00;2031.33
1634.00;2034.03
1636.00;2037.89
1638.00;2031.30
1640.00;2032.53
1642.00;2025.07
1644.00;2023.47
1646.00;2035.80
1648.00;2020.18
1650.00;2015.99
1652.00;2014.19
1654.00;2021.10
1656.00;2011.92
1658.00;2004.43
1660.00;2010.08
1662.00;2011.41
1664.00;2004.93
1666.00;2007.14
1668.00;2017.10
1670.00;2004.66
1672.00;2008.15
1674.00;2006.79
1676.00;2007.32
1678.00;2010.04
1680.00;1999.65
1682.00;1987.54
1684.00;1980.98
1686.00;1983.31
1688.00;1972.97
1690.00;1963.20
1692.00;1953.10
1694.00;1960.42
1696.00;1961.32
1698.00;1958.00
1700.00;1940.49
1702.00;1932.38
1704.00;1917.42
1706.00;1908.90
1708.00;1912.29
1710.00;1894.18
1712.00;1887.09
1714.00;1895.12
1716.00;1900.24
1718.00;1896.30
1720.00;1897.16
1722.00;1882.60
1724.00;1888.18
1726.00;1882.19
1728.00;1881.92
1730.00;1877.05
1732.00;1870.51
1734.00;1873.43
1736.00;1867.30
1738.00;1854.17
1740.00;1856.00
1742.00;1859.41
1744.00;1848.27
1746.00;1849.53
1748.00;1857.49
1750.00;1856.41
1752.00;1848.33
1754.00;1863.32
1756.00;1860.00
1758.00;1843.32
1760.00;1842.03
1762.00;1840.74
1764.00;1834.43
1766.00;1829.43
1768.00;1829.96
1770.00;1827.64
1772.00;1827.30
1774.00;1831.44
1776.00;1837.58
1778.00;1823.21
1780.00;1821.16
1782.00;1804.49
1784.00;1812.05
1786.00;1807.19
1788.00;1807.50
1790.00;1807.80
1792.00;1796.52
1794.00;1807.68
1796.00;1805.74
1798.00;1800.25
1800.00;1793.47
1802.00;1796.03
1804.00;1794.32
1806.00;1790.09
1808.00;1790.84
1810.00;1793.69
1812.00;1790.29
1814.00;1788.71
1816.00;1782.19
1818.00;1773.28
1820.00;1771.47
1822.00;1776.63
1824.00;1766.31
1826.00;1775.73
1828.00;1767.67
1830.00;1756.78
1832.00;1751.85
1834.00;1757.68
1836.00;1753.74
1838.00;1753.18
1840.00;1744.59
1842.00;1742.47
1844.00;1742.10
1846.00;1736.69
1848.00;1728.23
1850.00;1734.93
1852.00;1726.89
1854.00;1721.95
1856.00;1721.86
1858.00;1714.79
1860.00;1719.07
1862.00;1728.39
1864.00;1706.03
1866.00;1702.71
1868.00;1708.88
1870.00;1689.61
1872.00;1692.92
1874.00;1694.42
1876.00;1691.97
1878.00;1693.47
1880.00;1673.81
1882.00;1677.01
1884.00;1684.79
1886.00;1694.35
1888.00;1679.30
1890.00;1678.28
1892.00;1664.11
1894.00;1663.41
1896.00;1661.51
1898.00;1664.08
1900.00;1667.69
1902.00;1672.70
1904.00;1654.20
1906.00;1657.13
1908.00;1652.46
1910.00;1666.36
1912.00;1670.22
1914.00;1664.53
1916.00;1643.66
1918.00;1640.40
1920.00;1642.23
1922.00;1642.20
1924.00;1643.58
1926.00;1650.76
1928.00;1627.81
1930.00;1630.51
1932.00;1635.11
1934.00;1619.99
1936.00;1625.58
1938.00;1629.91
1940.00;1631.44
1942.00;1618.57
1944.00;1625.28
1946.00;1617.35
1948.00;1621.72
1950.00;1615.72
1952.00;1623.34
1954.00;1620.04
1956.00;1613.95
1958.00;1613.63
1960.00;1607.95
1962.00;1595.17
1964.00;1612.05
1966.00;1600.17
1968.00;1593.71
1970.00;1590.80
1972.00;1595.15
1974.00;1577.52
1976.00;1573.40
1978.00;1580.96
1980.00;1564.15
1982.00;1569.89
1984.00;1567.64
1986.00;1565.79
1988.00;1569.97
1990.00;1571.04
1992.00;1568.70
1994.00;1572.13
1996.00;1558.58
1998.00;1565.24
2000.00;1556.15
2002.00;1555.90
2004.00;1560.44
2006.00;1549.92
2008.00;1549.95
2010.00;1558.86
2012.00;1531.33
2014.00;1537.48
2016.00;1551.08
2018.00;1535.98
2020.00;1535.54
2022.00;1532.14
2024.00;1532.77
2026.00;1533.25
2028.00;1522.02
2030.00;1533.96
2032.00;1545.04
2034.00;1515.17
2036.00;1531.47
2038.00;1522.33
2040.00;1529.41
2042.00;1517.13
2044.00;1512.76
2046.00;1498.91
2048.00;1512.81
2050.00;1499.52
2052.00;1498.61
2054.00;1500.31
2056.00;1495.90
2058.00;1499.07
2060.00;1511.32
2062.00;1497.76
2064.00;1506.59
2066.00;1491.54
2068.00;1494.35
2070.00;1480.09
2072.00;1496.27
2074.00;1495.26
2076.00;1498.15
2078.00;1477.13
2080.00;1493.21
2082.00;1485.77
2084.00;1490.50
2086.00;1471.69
2088.00;1489.48
2090.00;1472.35
2092.00;1467.23
2094.00;1466.76
2096.00;1470.35
2098.00;1471.18
2100.00;1456.30
2102.00;1464.34
2104.00;1451.45
2106.00;1450.34
2108.00;1431.67
2110.00;1453.85
2112.00;1439.35
2114.00;1451.41
2116.00;1458.28
2118.00;1439.24
2120.00;1440.86
2122.00;1426.89
2124.00;1445.43
2126.00;1445.08
2128.00;1412.36
2130.00;1438.37
2132.00;1408.64
2134.00;1419.26
2136.00;1422.48
2138.00;1402.71
2140.00;1419.20
2142.00;1407.82
2144.00;1407.68
2146.00;1429.36
2148.00;1432.96
2150.00;1403.63
2152.00;1416.30
2154.00;1401.83
2156.00;1411.19
2158.00;1385.53
2160.00;1403.99
2162.00;1392.47
2164.00;1395.65
2166.00;1408.42
2168.00;1388.65
2170.00;1393.88
2172.00;1382.20
2174.00;1372.07
2176.00;1402.06
2178.00;1385.61
2180.00;1391.71
2182.00;1385.67
2184.00;1390.69
2186.00;1389.53
2188.00;1386.94
2190.00;1391.02
2192.00;1381.87
2194.00;1373.69
2196.00;1369.87
2198.00;1390.07
2200.00;1379.34
2202.00;1371.33
2204.00;1383.47
2206.00;1381.41
2208.00;1353.74
2210.00;1367.01
2212.00;1376.59
2214.00;1360.56
2216.00;1378.63
2218.00;1364.48
2220.00;1379.78
2222.00;1361.31
2224.00;1350.61
2226.00;1354.33
2228.00;1363.43
2230.00;1330.14
2232.00;1366.32
2234.00;1341.67
2236.00;1327.83
2238.00;1336.74
2240.00;1342.13
2242.00;1330.44
2244.00;1320.31
2246.00;1319.86
2248.00;1336.51
2250.00;1341.04
2252.00;1331.30
2254.00;1325.11
2256.00;1332.42
2258.00;1296.58
2260.00;1302.95
2262.00;1305.08
2264.00;1309.98
2266.00;1310.09
2268.00;1321.01
2270.00;1323.89
2272.00;1287.25
2274.00;1323.61
2276.00;1292.99
2278.00;1314.34
2280.00;1297.09
2282.00;1302.11
2284.00;1330.80
2286.00;1303.56
2288.00;1303.40
2290.00;1290.44
2292.00;1308.24
2294.00;1284.79
2296.00;1277.93
2298.00;1302.40
2300.00;1268.46
[ANALYSIS RESULT]
Analysis_Type;None
