AP Cora 5001
Software_Version;1.4.1
[SAMPLE]
Sample_Name;Sample1_haversian_1
Method;
[PARAMETERS]
Instrument_Type;Cora 5001
Instrument_SN;99119713
Last_SST;4/23/2024 1:36:37 PM +00:00
User_Name;labmanager
Measurement_Started;4/25/2024 2:07:57 PM
Measurement_Finished;4/25/2024 2:08:57 PM
Measurement_Saved;4/25/2024 2:08:57 PM
Wavelength;785
Laser_Power;30
Auto_Exposure;False
Exposure_Time;10000
Averaged_Spectra;3
Probe_Type;Regular Probe (785 nm)
Probe_SN;99101107
Dark_Background;True
User_Background_Spectrum;
Spike_Removal;True
Baseline_Correction;False
Smoothing;False
Normalization;None
[SPECTRUM QUALITY]
Quality_Saturation;False
Quality_SBR;NaN
Quality_Temperature;False
[SPECTRUM]
100.00;3965.39
102.00;3938.93
104.00;3891.04
106.00;3833.36
108.00;3763.27
110.00;3680.48
112.00;3584.37
114.00;3472.86
116.00;3362.48
118.00;3258.95
120.00;3136.11
122.00;3024.58
124.00;2918.96
126.00;2829.43
128.00;2737.14
130.00;2652.28
132.00;2578.80
134.00;2506.22
136.00;2437.84
138.00;2380.39
140.00;2319.10
142.00;2262.90
144.00;2228.41
146.00;2191.15
148.00;2169.28
150.00;2141.63
152.00;2130.59
154.00;2110.01
156.00;2090.92
158.00;2074.79
160.00;2060.95
162.00;2059.38
164.00;2057.30
166.00;2044.62
168.00;2041.50
170.00;2038.73
172.00;2025.26
174.00;2016.78
176.00;2021.38
178.00;2018.31
180.00;2006.18
182.00;1999.70
184.00;1994.93
186.00;1991.25
188.00;1977.48
190.00;1973.78
192.00;1977.15
194.00;1969.36
196.00;1964.94
198.00;1956.57
200.00;1957.86
202.00;1952.24
204.00;1960.13
206.00;1961.80
208.00;1953.09
210.00;1956.86
212.00;1955.35
214.00;1955.08
216.00;1961.60
218.00;1951.57
220.00;1947.91
222.00;1949.95
224.00;1943.98
226.00;1946.95
228.00;1945.74
230.00;1944.82
232.00;1947.90
234.00;1946.97
236.00;1948.62
238.00;1950.23
240.00;1952.48
242.00;1952.87
244.00;1942.84
246.00;1952.50
248.00;1951.00
250.00;1955.47
252.00;1959.34
254.00;1960.42
256.00;1960.15
258.00;1962.17
260.00;1965.64
262.00;1967.19
264.00;1969.95
266.00;1971.37
268.00;1978.34
270.00;1979.57
272.00;1974.89
274.00;1975.93
276.00;1977.09
278.00;1981.01
280.00;1985.08
282.00;1980.91
284.00;1977.55
286.00;1984.11
288.00;1986.28
290.00;1980.33
292.00;1979.74
294.00;1980.20
296.00;1978.79
298.00;1972.86
300.00;1971.03
302.00;1977.71
304.00;1977.14
306.00;1980.66
308.00;1979.37
310.00;1976.57
312.00;1975.63
314.00;1968.84
316.00;1965.94
318.00;1972.57
320.00;1972.12
322.00;1974.69
324.00;1971.47
326.00;1971.41
328.00;1969.18
330.00;1973.13
332.00;1979.82
334.00;1971.18
336.00;1969.75
338.00;1972.98
340.00;1966.94
342.00;1967.54
344.00;1971.30
346.00;1969.39
348.00;1973.10
350.00;1972.07
352.00;1969.33
354.00;1970.82
356.00;1970.65
358.00;1973.15
360.00;1965.78
362.00;1956.61
364.00;1952.88
366.00;1954.80
368.00;1955.57
370.00;1962.49
372.00;1961.28
374.00;1957.54
376.00;1961.41
378.00;1956.82
380.00;1957.94
382.00;1961.61
384.00;1970.28
386.00;1973.84
388.00;1969.97
390.00;1971.92
392.00;1974.57
394.00;1975.31
396.00;1966.00
398.00;1975.98
400.00;1969.84
402.00;1973.31
404.00;1975.03
406.00;1978.65
408.00;1986.46
410.00;1979.49
412.00;1985.69
414.00;1994.25
416.00;1989.41
418.00;2000.69
420.00;2002.44
422.00;2005.15
424.00;2010.93
426.00;2012.24
428.00;2017.80
430.00;2017.74
432.00;2018.18
434.00;2018.16
436.00;2017.92
438.00;2016.24
440.00;2019.87
442.00;2013.43
444.00;2019.78
446.00;2016.88
448.00;2015.59
450.00;2013.13
452.00;2005.10
454.00;1997.66
456.00;1995.93
458.00;1991.87
460.00;1991.69
462.00;1984.59
464.00;1988.35
466.00;1975.94
468.00;1986.19
470.00;1985.88
472.00;1978.75
474.00;1975.23
476.00;1969.78
478.00;1964.79
480.00;1960.22
482.00;1959.36
484.00;1951.25
486.00;1955.91
488.00;1959.07
490.00;1966.73
492.00;1956.82
494.00;1959.48
496.00;1962.85
498.00;1959.25
500.00;1954.20
502.00;1951.46
504.00;1955.76
506.00;1961.27
508.00;1956.95
510.00;1958.52
512.00;1957.01
514.00;1958.80
516.00;1956.51
518.00;1965.42
520.00;1967.44
522.00;1967.76
524.00;1968.21
526.00;1967.68
528.00;1970.65
530.00;1970.06
532.00;1974.04
534.00;1966.35
536.00;1960.75
538.00;1961.05
540.00;1965.84
542.00;1964.16
544.00;1961.40
546.00;1968.56
548.00;1972.18
550.00;1974.12
552.00;1978.08
554.00;1971.75
556.00;1980.83
558.00;1973.51
560.00;1986.19
562.00;1989.33
564.00;1984.77
566.00;1991.11
568.00;1999.10
570.00;1995.41
572.00;1998.05
574.00;2000.68
576.00;2005.49
578.00;2008.79
580.00;2008.51
582.00;2014.17
584.00;2018.34
586.00;2015.74
588.00;2011.00
590.00;2003.91
592.00;2006.34
594.00;2004.43
596.00;2002.67
598.00;2002.31
600.00;2007.06
602.00;2003.45
604.00;1988.96
606.00;1984.30
608.00;1979.51
610.00;1978.73
612.00;1975.70
614.00;1980.02
616.00;1969.77
618.00;1971.42
620.00;1968.76
622.00;1964.28
624.00;1963.04
626.00;1958.99
628.00;1957.17
630.00;1946.33
632.00;1938.11
634.00;1935.77
636.00;1936.97
638.00;1936.40
640.00;1940.30
642.00;1934.87
644.00;1930.68
646.00;1922.90
648.00;1916.10
650.00;1921.19
652.00;1931.48
654.00;1931.00
656.00;1935.84
658.00;1933.26
660.00;1919.10
662.00;1923.23
664.00;1922.07
666.00;1919.33
668.00;1918.29
670.00;1921.06
672.00;1920.76
674.00;1916.88
676.00;1920.47
678.00;1917.01
680.00;1917.26
682.00;1916.94
684.00;1916.97
686.00;1916.65
688.00;1914.30
690.00;1912.56
692.00;1913.95
694.00;1909.08
696.00;1916.68
698.00;1919.93
700.00;1915.93
702.00;1912.53
704.00;1909.66
706.00;1915.02
708.00;1910.01
710.00;1903.40
712.00;1903.50
714.00;1902.50
716.00;1907.92
718.00;1907.79
720.00;1908.92
722.00;1916.49
724.00;1910.32
726.00;1902.88
728.00;1910.79
730.00;1908.16
732.00;1908.43
734.00;1908.03
736.00;1907.09
738.00;1905.91
740.00;1898.85
742.00;1897.45
744.00;1894.00
746.00;1887.91
748.00;1897.07
750.00;1893.21
752.00;1896.99
754.00;1890.44
756.00;1891.85
758.00;1890.25
760.00;1891.71
762.00;1888.86
764.00;1888.89
766.00;1882.44
768.00;1881.87
770.00;1876.90
772.00;1876.48
774.00;1876.35
776.00;1874.54
778.00;1870.77
780.00;1872.51
782.00;1869.89
784.00;1869.02
786.00;1875.44
788.00;1873.35
790.00;1871.49
792.00;1868.86
794.00;1861.56
796.00;1860.32
798.00;1865.33
800.00;1872.14
802.00;1870.54
804.00;1872.09
806.00;1875.65
808.00;1878.75
810.00;1887.15
812.00;1899.73
814.00;1894.05
816.00;1893.33
818.00;1886.84
820.00;1877.68
822.00;1872.53
824.00;1864.24
826.00;1868.91
828.00;1869.48
830.00;1877.80
832.00;1875.58
834.00;1873.59
836.00;1872.51
838.00;1867.34
840.00;1865.59
842.00;1865.06
844.00;1874.10
846.00;1890.41
848.00;1906.70
850.00;1897.58
852.00;1888.93
854.00;1888.64
856.00;1896.42
858.00;1881.78
860.00;1885.28
862.00;1880.23
864.00;1877.71
866.00;1876.39
868.00;1877.85
870.00;1884.77
872.00;1880.81
874.00;1880.27
876.00;1881.18
878.00;1876.35
880.00;1877.79
882.00;1874.63
884.00;1871.08
886.00;1866.93
888.00;1863.43
890.00;1868.22
892.00;1868.66
894.00;1857.02
896.00;1861.13
898.00;1866.89
900.00;1862.63
902.00;1861.14
904.00;1852.25
906.00;1854.33
908.00;1852.98
910.00;1854.33
912.00;1861.96
914.00;1867.99
916.00;1867.76
918.00;1872.72
920.00;1880.89
922.00;1881.50
924.00;1884.17
926.00;1877.94
928.00;1882.40
930.00;1883.09
932.00;1896.48
934.00;1907.00
936.00;1919.65
938.00;1934.56
940.00;1950.05
942.00;1961.75
944.00;1988.98
946.00;2018.40
948.00;2058.33
950.00;2117.91
952.00;2177.12
954.00;2248.89
956.00;2319.73
958.00;2367.52
960.00;2385.24
962.00;2373.39
964.00;2334.81
966.00;2260.13
968.00;2182.87
970.00;2103.91
972.00;2033.23
974.00;1982.48
976.00;1932.86
978.00;1885.55
980.00;1867.73
982.00;1853.27
984.00;1842.21
986.00;1839.64
988.00;1837.39
990.00;1829.09
992.00;1823.37
994.00;1813.70
996.00;1823.03
998.00;1830.85
1000.00;1836.12
1002.00;1836.31
1004.00;1835.11
1006.00;1831.77
1008.00;1829.80
1010.00;1823.74
1012.00;1813.03
1014.00;1812.32
1016.00;1817.62
1018.00;1816.11
1020.00;1823.23
1022.00;1832.36
1024.00;1831.56
1026.00;1822.18
1028.00;1834.33
1030.00;1824.64
1032.00;1831.01
1034.00;1835.86
1036.00;1828.60
1038.00;1826.79
1040.00;1826.78
1042.00;1827.72
1044.00;1834.51
1046.00;1830.03
1048.00;1834.57
1050.00;1828.60
1052.00;1829.37
1054.00;1819.75
1056.00;1827.42
1058.00;1826.82
1060.00;1835.64
1062.00;1847.01
1064.00;1847.81
1066.00;1852.12
1068.00;1860.24
1070.00;1868.25
1072.00;1864.51
1074.00;1862.86
1076.00;1856.05
1078.00;1852.29
1080.00;1838.50
1082.00;1821.89
1084.00;1813.31
1086.00;1808.82
1088.00;1798.65
1090.00;1793.79
1092.00;1779.60
1094.00;1782.08
1096.00;1765.12
1098.00;1763.46
1100.00;1769.18
1102.00;1766.33
1104.00;1767.52
1106.00;1763.36
1108.00;1766.22
1110.00;1765.47
1112.00;1755.37
1114.00;1754.23
1116.00;1740.18
1118.00;1733.84
1120.00;1731.79
1122.00;1728.88
1124.00;1732.47
1126.00;1727.38
1128.00;1725.90
1130.00;1725.06
1132.00;1720.04
1134.00;1712.28
1136.00;1714.50
1138.00;1714.58
1140.00;1716.21
1142.00;1708.44
1144.00;1708.09
1146.00;1708.98
1148.00;1708.23
1150.00;1710.55
1152.00;1712.35
1154.00;1703.62
1156.00;1717.52
1158.00;1705.62
1160.00;1710.42
1162.00;1706.48
1164.00;1708.56
1166.00;1708.88
1168.00;1704.18
1170.00;1699.28
1172.00;1708.27
1174.00;1703.74
1176.00;1704.45
1178.00;1704.36
1180.00;1697.10
1182.00;1697.62
1184.00;1696.64
1186.00;1692.71
1188.00;1691.40
1190.00;1695.21
1192.00;1692.90
1194.00;1699.40
1196.00;1691.20
1198.00;1693.16
1200.00;1698.97
1202.00;1697.07
1204.00;1695.14
1206.00;1689.84
1208.00;1696.07
1210.00;1694.94
1212.00;1695.11
1214.00;1694.35
1216.00;1697.11
1218.00;1692.20
1220.00;1685.19
1222.00;1700.09
1224.00;1689.72
1226.00;1699.57
1228.00;1699.22
1230.00;1703.10
1232.00;1709.66
1234.00;1717.99
1236.00;1713.78
1238.00;1718.93
1240.00;1727.13
1242.00;1725.03
1244.00;1719.50
1246.00;1713.74
1248.00;1711.68
1250.00;1715.90
1252.00;1717.29
1254.00;1715.69
1256.00;1710.89
1258.00;1710.35
1260.00;1704.31
1262.00;1708.75
1264.00;1709.00
1266.00;1708.63
1268.00;1706.58
1270.00;1708.28
1272.00;1703.44
1274.00;1701.80
1276.00;1691.26
1278.00;1690.10
1280.00;1684.68
1282.00;1683.42
1284.00;1683.52
1286.00;1676.29
1288.00;1671.75
1290.00;1671.11
1292.00;1669.53
1294.00;1674.18
1296.00;1669.56
1298.00;1665.70
1300.00;1664.52
1302.00;1665.71
1304.00;1659.49
1306.00;1660.72
1308.00;1668.49
1310.00;1660.93
1312.00;1665.82
1314.00;1653.43
1316.00;1652.90
1318.00;1650.35
1320.00;1650.23
1322.00;1648.52
1324.00;1651.65
1326.00;1647.38
1328.00;1646.31
1330.00;1645.20
1332.00;1641.17
1334.00;1640.46
1336.00;1647.57
1338.00;1656.37
1340.00;1647.70
1342.00;1645.18
1344.00;1645.97
1346.00;1643.38
1348.00;1634.21
1350.00;1632.13
1352.00;1637.52
1354.00;1630.81
1356.00;1626.58
1358.00;1626.08
1360.00;1633.91
1362.00;1632.04
1364.00;1627.49
1366.00;1621.74
1368.00;1632.59
1370.00;1624.58
1372.00;1627.75
1374.00;1626.36
1376.00;1626.31
1378.00;1627.82
1380.00;1626.40
1382.00;1627.83
1384.00;1633.81
1386.00;1625.85
1388.00;1626.91
1390.00;1625.49
1392.00;1633.56
1394.00;1623.40
1396.00;1619.97
1398.00;1624.21
1400.00;1625.92
1402.00;1623.16
1404.00;1619.89
1406.00;1618.19
1408.00;1611.67
1410.00;1613.49
1412.00;1605.99
1414.00;1616.38
1416.00;1609.17
1418.00;1607.72
1420.00;1613.59
1422.00;1620.26
1424.00;1610.37
1426.00;1621.18
1428.00;1618.07
1430.00;1609.40
1432.00;1609.24
1434.00;1621.72
1436.00;1618.40
1438.00;1625.76
1440.00;1636.63
1442.00;1637.03
1444.00;1636.68
1446.00;1644.13
1448.00;1645.88
1450.00;1654.11
1452.00;1644.71
1454.00;1639.57
1456.00;1633.04
1458.00;1625.63
1460.00;1635.06
1462.00;1625.80
1464.00;1613.95
1466.00;1611.25
1468.00;1611.42
1470.00;1597.17
1472.00;1581.95
1474.00;1578.66
1476.00;1571.84
1478.00;1562.79
1480.00;1563.76
1482.00;1552.61
1484.00;1559.68
1486.00;1555.88
1488.00;1544.82
1490.00;1534.81
1492.00;1536.37
1494.00;1540.61
1496.00;1523.46
1498.00;1522.19
1500.00;1520.62
1502.00;1523.30
1504.00;1519.91
1506.00;1514.90
1508.00;1516.95
1510.00;1515.32
1512.00;1510.76
1514.00;1517.94
1516.00;1513.35
1518.00;1516.85
1520.00;1512.39
1522.00;1511.63
1524.00;1503.13
1526.00;1509.72
1528.00;1514.08
1530.00;1509.01
1532.00;1503.38
1534.00;1496.37
1536.00;1512.65
1538.00;1492.94
1540.00;1498.73
1542.00;1496.19
1544.00;1490.11
1546.00;1490.92
1548.00;1485.32
1550.00;1481.38
1552.00;1481.20
1554.00;1488.02
1556.00;1483.62
1558.00;1473.79
1560.00;1473.31
1562.00;1480.20
1564.00;1479.17
1566.00;1476.41
1568.00;1472.74
1570.00;1467.35
1572.00;1463.40
1574.00;1467.66
1576.00;1472.74
1578.00;1478.69
1580.00;1464.13
1582.00;1478.55
1584.00;1474.10
1586.00;1468.93
1588.00;1480.52
1590.00;1479.84
1592.00;1475.77
1594.00;1465.63
1596.00;1465.56
1598.00;1474.76
1600.00;1467.48
1602.00;1473.97
1604.00;1450.50
1606.00;1464.98
1608.00;1471.07
1610.00;1468.93
1612.00;1461.57
1614.00;1463.07
1616.00;1460.63
1618.00;1468.68
1620.00;1477.21
1622.00;1471.12
1624.00;1473.74
1626.00;1472.90
1628.00;1473.36
1630.00;1476.52
1632.00;1475.33
1634.00;1481.21
1636.00;1474.23
1638.00;1479.10
1640.00;1482.36
1642.00;1478.97
1644.00;1485.07
1646.00;1474.92
1648.00;1467.79
1650.00;1478.30
1652.00;1469.80
1654.00;1469.54
1656.00;1458.19
1658.00;1464.23
1660.00;1462.08
1662.00;1479.41
1664.00;1463.30
1666.00;1453.95
1668.00;1456.49
1670.00;1464.01
1672.00;1468.70
1674.00;1445.04
1676.00;1459.61
1678.00;1462.35
1680.00;1457.55
1682.00;1447.76
1684.00;1447.06
1686.00;1437.21
1688.00;1430.84
1690.00;1431.35
1692.00;1420.62
1694.00;1411.68
1696.00;1406.57
1698.00;1418.98
1700.00;1403.63
1702.00;1396.95
1704.00;1379.74
1706.00;1388.05
1708.00;1372.23
1710.00;1367.71
1712.00;1376.33
1714.00;1353.98
1716.00;1346.57
1718.00;1357.93
1720.00;1358.58
1722.00;1344.47
1724.00;1355.45
1726.00;1344.77
1728.00;1347.05
1730.00;1340.84
1732.00;1335.55
1734.00;1328.11
1736.00;1343.85
1738.00;1331.92
1740.00;1328.75
1742.00;1323.65
1744.00;1322.42
1746.00;1328.06
1748.00;1318.10
1750.00;1322.60
1752.00;1325.81
1754.00;1319.14
1756.00;1316.62
1758.00;1318.51
1760.00;1320.33
1762.00;1320.02
1764.00;1315.90
1766.00;1315.79
1768.00;1306.80
1770.00;1309.54
1772.00;1307.13
1774.00;1305.06
1776.00;1312.02
1778.00;1299.20
1780.00;1294.95
1782.00;1304.73
1784.00;1302.78
1786.00;1292.12
1788.00;1285.05
1790.00;1283.67
1792.00;1287.27
1794.00;1284.25
1796.00;1283.02
1798.00;1279.00
1800.00;1286.45
1802.00;1288.61
1804.00;1277.93
1806.00;1278.82
1808.00;1277.65
1810.00;1272.79
1812.00;1269.71
1814.00;1275.53
1816.00;1263.19
1818.00;1270.48
1820.00;1269.35
1822.00;1251.76
1824.00;1270.77
1826.00;1259.71
1828.00;1256.70
1830.00;1252.94
1832.00;1250.13
1834.00;1251.03
1836.00;1250.97
1838.00;1252.51
1840.00;1244.29
1842.00;1247.37
1844.00;1239.80
1846.00;1241.72
1848.00;1233.24
1850.00;1228.66
1852.00;1246.73
1854.00;1234.68
1856.00;1224.33
1858.00;1228.43
1860.00;1230.70
1862.00;1224.11
1864.00;1226.01
1866.00;1213.77
1868.00;1208.76
1870.00;1204.13
1872.00;1209.21
1874.00;1209.99
1876.00;1208.73
1878.00;1217.17
1880.00;1199.63
1882.00;1204.81
1884.00;1207.40
1886.00;1197.11
1888.00;1197.91
1890.00;1207.95
1892.00;1199.41
1894.00;1191.30
1896.00;1185.86
1898.00;1193.22
1900.00;1190.03
1902.00;1196.83
1904.00;1191.94
1906.00;1186.31
1908.00;1190.79
1910.00;1192.26
1912.00;1178.32
1914.00;1173.86
1916.00;1182.61
1918.00;1182.14
1920.00;1177.01
1922.00;1176.65
1924.00;1182.18
1926.00;1176.13
1928.00;1169.89
1930.00;1162.71
1932.00;1157.84
1934.00;1149.71
1936.00;1151.30
1938.00;1160.96
1940.00;1149.19
1942.00;1159.09
1944.00;1159.09
1946.00;1158.34
1948.00;1157.58
1950.00;1151.45
1952.00;1155.38
1954.00;1138.57
1956.00;1138.56
1958.00;1155.76
1960.00;1142.39
1962.00;1133.50
1964.00;1146.45
1966.00;1133.37
1968.00;1134.33
1970.00;1125.34
1972.00;1119.66
1974.00;1133.55
1976.00;1109.85
1978.00;1127.37
1980.00;1121.52
1982.00;1106.77
1984.00;1113.10
1986.00;1114.78
1988.00;1111.55
1990.00;1112.49
1992.00;1122.14
1994.00;1108.97
1996.00;1113.28
1998.00;1110.32
2000.00;1121.74
2002.00;1103.36
2004.00;1104.27
2006.00;1103.31
2008.00;1109.25
2010.00;1108.00
2012.00;1113.31
2014.00;1099.87
2016.00;1094.91
2018.00;1097.57
2020.00;1098.36
2022.00;1100.86
2024.00;1088.37
2026.00;1089.99
2028.00;1104.47
2030.00;1100.58
2032.00;1089.43
2034.00;1087.39
2036.00;1095.57
2038.00;1094.43
2040.00;1076.24
2042.00;1071.86
2044.00;1074.16
2046.00;1092.74
2048.00;1056.86
2050.00;1061.56
2052.00;1076.71
2054.00;1064.89
2056.00;1069.22
2058.00;1075.05
2060.00;1073.93
2062.00;1077.39
2064.00;1072.02
2066.00;1064.84
2068.00;1051.21
2070.00;1060.85
2072.00;1051.13
2074.00;1054.79
2076.00;1059.88
2078.00;1056.30
2080.00;1059.19
2082.00;1059.03
2084.00;1056.27
2086.00;1043.40
2088.00;1058.34
2090.00;1060.34
2092.00;1045.65
2094.00;1048.54
2096.00;1046.25
2098.00;1054.09
2100.00;1049.57
2102.00;1050.50
2104.00;1034.93
2106.00;1034.46
2108.00;1040.81
2110.00;1035.32
2112.00;1027.34
2114.00;1033.43
2116.00;1017.91
2118.00;1016.44
2120.00;1015.27
2122.00;1021.90
2124.00;1019.16
2126.00;1015.73
2128.00;1018.93
2130.00;1030.91
2132.00;1003.59
2134.00;1016.10
2136.00;998.85
2138.00;1012.25
2140.00;1002.46
2142.00;1003.03
2144.00;994.36
2146.00;992.71
2148.00;1003.07
2150.00;1006.26
2152.00;993.04
2154.00;998.23
2156.00;1003.96
2158.00;999.89
2160.00;992.55
2162.00;998.47
2164.00;997.66
2166.00;1000.29
2168.00;989.77
2170.00;981.72
2172.00;990.13
2174.00;972.47
2176.00;995.19
2178.00;993.92
2180.00;979.87
2182.00;980.20
2184.00;988.08
2186.00;986.47
2188.00;1003.91
2190.00;982.95
2192.00;979.91
2194.00;975.10
2196.00;979.00
2198.00;973.39
2200.00;981.71
2202.00;976.41
2204.00;973.03
2206.00;972.27
2208.00;967.68
2210.00;966.32
2212.00;981.30
2214.00;979.28
2216.00;969.10
2218.00;966.48
2220.00;963.68
2222.00;955.11
2224.00;975.39
2226.00;953.17
2228.00;961.59
2230.00;951.70
2232.00;943.22
2234.00;948.47
2236.00;952.08
2238.00;918.35
2240.00;944.24
2242.00;925.81
2244.00;944.89
2246.00;944.98
2248.00;941.79
2250.00;940.01
2252.00;947.35
2254.00;938.18
2256.00;933.74
2258.00;919.76
2260.00;922.52
2262.00;921.18
2264.00;924.08
2266.00;916.30
2268.00;932.74
2270.00;937.66
2272.00;944.11
2274.00;925.90
2276.00;920.70
2278.00;932.46
2280.00;923.61
2282.00;917.32
2284.00;915.95
2286.00;920.53
2288.00;911.85
2290.00;895.91
2292.00;906.87
2294.00;934.40
2296.00;906.01
2298.00;917.23
2300.00;890.93
[ANALYSIS RESULT]
Analysis_Type;None
