AP Cora 5001
Software_Version;1.4.1
[SAMPLE]
Sample_Name;Bov_denat1_before_3
Method;
[PARAMETERS]
Instrument_Type;Cora 5001
Instrument_SN;99119713
Last_SST;2/13/2024 2:05:45 PM +00:00
User_Name;labmanager
Measurement_Started;2/13/2024 3:31:25 PM
Measurement_Finished;2/13/2024 3:32:26 PM
Measurement_Saved;2/13/2024 3:32:26 PM
Wavelength;785
Laser_Power;30
Auto_Exposure;False
Exposure_Time;10000
Averaged_Spectra;3
Probe_Type;Regular Probe (785 nm)
Probe_SN;99101107
Dark_Background;True
User_Background_Spectrum;
Spike_Removal;True
Baseline_Correction;False
Smoothing;False
Normalization;None
[SPECTRUM QUALITY]
Quality_Saturation;False
Quality_SBR;NaN
Quality_Temperature;False
[SPECTRUM]
100.00;8004.15
102.00;7757.39
104.00;7496.15
106.00;7237.15
108.00;6968.89
110.00;6681.85
112.00;6367.87
114.00;6056.39
116.00;5753.63
118.00;5460.95
120.00;5178.06
122.00;4924.43
124.00;4689.15
126.00;4478.58
128.00;4291.92
130.00;4125.18
132.00;3976.04
134.00;3843.30
136.00;3732.57
138.00;3634.55
140.00;3552.75
142.00;3492.81
144.00;3443.29
146.00;3396.06
148.00;3357.64
150.00;3341.45
152.00;3322.82
154.00;3307.24
156.00;3289.01
158.00;3280.59
160.00;3283.00
162.00;3279.38
164.00;3273.03
166.00;3267.95
168.00;3261.09
170.00;3260.99
172.00;3260.97
174.00;3248.99
176.00;3242.36
178.00;3240.87
180.00;3234.16
182.00;3229.88
184.00;3225.40
186.00;3212.06
188.00;3201.15
190.00;3195.79
192.00;3181.56
194.00;3175.37
196.00;3163.88
198.00;3169.79
200.00;3166.89
202.00;3161.02
204.00;3168.83
206.00;3181.74
208.00;3180.00
210.00;3175.09
212.00;3174.30
214.00;3174.29
216.00;3173.92
218.00;3170.69
220.00;3173.58
222.00;3176.89
224.00;3170.40
226.00;3169.29
228.00;3166.48
230.00;3159.10
232.00;3164.39
234.00;3166.05
236.00;3164.97
238.00;3167.10
240.00;3167.20
242.00;3177.12
244.00;3179.50
246.00;3180.63
248.00;3180.50
250.00;3179.36
252.00;3183.03
254.00;3199.94
256.00;3206.33
258.00;3205.42
260.00;3214.07
262.00;3221.26
264.00;3223.26
266.00;3229.16
268.00;3231.64
270.00;3233.05
272.00;3236.10
274.00;3237.18
276.00;3240.21
278.00;3245.53
280.00;3243.67
282.00;3246.87
284.00;3253.38
286.00;3248.30
288.00;3245.53
290.00;3244.77
292.00;3242.41
294.00;3240.09
296.00;3239.60
298.00;3231.64
300.00;3241.06
302.00;3235.36
304.00;3226.13
306.00;3227.67
308.00;3226.10
310.00;3228.16
312.00;3231.20
314.00;3235.30
316.00;3234.04
318.00;3234.34
320.00;3224.51
322.00;3226.42
324.00;3233.17
326.00;3229.35
328.00;3227.97
330.00;3243.70
332.00;3239.10
334.00;3240.92
336.00;3234.61
338.00;3239.74
340.00;3246.77
342.00;3237.01
344.00;3239.42
346.00;3240.63
348.00;3237.11
350.00;3237.90
352.00;3241.65
354.00;3244.19
356.00;3243.32
358.00;3243.85
360.00;3238.09
362.00;3232.34
364.00;3232.52
366.00;3233.74
368.00;3237.15
370.00;3238.37
372.00;3236.17
374.00;3232.08
376.00;3231.62
378.00;3235.07
380.00;3239.02
382.00;3246.58
384.00;3245.19
386.00;3243.63
388.00;3249.01
390.00;3253.00
392.00;3257.73
394.00;3248.59
396.00;3258.03
398.00;3271.26
400.00;3261.11
402.00;3268.51
404.00;3275.08
406.00;3280.07
408.00;3286.07
410.00;3292.01
412.00;3305.89
414.00;3312.77
416.00;3312.56
418.00;3316.36
420.00;3327.85
422.00;3333.70
424.00;3351.07
426.00;3366.89
428.00;3370.82
430.00;3381.59
432.00;3380.66
434.00;3375.08
436.00;3369.49
438.00;3364.39
440.00;3372.46
442.00;3367.18
444.00;3364.13
446.00;3361.51
448.00;3364.93
450.00;3357.75
452.00;3343.50
454.00;3338.04
456.00;3328.38
458.00;3333.88
460.00;3330.70
462.00;3316.13
464.00;3325.24
466.00;3312.55
468.00;3299.11
470.00;3299.16
472.00;3292.57
474.00;3273.16
476.00;3266.36
478.00;3256.35
480.00;3248.61
482.00;3250.69
484.00;3259.18
486.00;3255.68
488.00;3256.02
490.00;3265.01
492.00;3262.88
494.00;3267.93
496.00;3270.61
498.00;3264.37
500.00;3252.92
502.00;3256.58
504.00;3255.28
506.00;3255.35
508.00;3261.38
510.00;3262.13
512.00;3253.31
514.00;3255.98
516.00;3264.90
518.00;3281.67
520.00;3283.04
522.00;3275.51
524.00;3270.52
526.00;3284.99
528.00;3286.38
530.00;3280.06
532.00;3285.69
534.00;3293.86
536.00;3287.85
538.00;3279.76
540.00;3284.71
542.00;3295.28
544.00;3292.74
546.00;3297.57
548.00;3297.91
550.00;3300.21
552.00;3299.17
554.00;3300.95
556.00;3299.34
558.00;3311.10
560.00;3318.53
562.00;3323.32
564.00;3328.76
566.00;3329.95
568.00;3330.81
570.00;3337.46
572.00;3336.83
574.00;3342.74
576.00;3358.17
578.00;3357.48
580.00;3363.75
582.00;3377.60
584.00;3380.38
586.00;3369.40
588.00;3368.04
590.00;3366.50
592.00;3365.48
594.00;3365.23
596.00;3352.08
598.00;3346.38
600.00;3336.90
602.00;3329.09
604.00;3310.04
606.00;3311.81
608.00;3302.31
610.00;3309.66
612.00;3300.12
614.00;3300.83
616.00;3291.82
618.00;3290.55
620.00;3295.56
622.00;3283.84
624.00;3271.46
626.00;3265.97
628.00;3261.11
630.00;3236.07
632.00;3237.93
634.00;3239.07
636.00;3232.60
638.00;3227.57
640.00;3227.25
642.00;3225.92
644.00;3218.02
646.00;3218.40
648.00;3213.27
650.00;3207.42
652.00;3219.75
654.00;3221.89
656.00;3226.10
658.00;3218.78
660.00;3204.61
662.00;3214.74
664.00;3205.29
666.00;3204.48
668.00;3204.76
670.00;3205.91
672.00;3204.71
674.00;3206.58
676.00;3205.02
678.00;3199.19
680.00;3202.63
682.00;3202.57
684.00;3199.45
686.00;3205.30
688.00;3199.84
690.00;3183.85
692.00;3184.76
694.00;3199.63
696.00;3190.93
698.00;3191.24
700.00;3194.91
702.00;3187.58
704.00;3181.63
706.00;3177.20
708.00;3183.21
710.00;3182.99
712.00;3172.62
714.00;3180.24
716.00;3186.26
718.00;3182.47
720.00;3175.01
722.00;3178.11
724.00;3172.73
726.00;3170.39
728.00;3171.73
730.00;3167.51
732.00;3166.41
734.00;3166.61
736.00;3161.93
738.00;3159.46
740.00;3153.99
742.00;3154.31
744.00;3144.50
746.00;3142.42
748.00;3147.37
750.00;3128.42
752.00;3133.17
754.00;3137.25
756.00;3140.44
758.00;3143.71
760.00;3138.63
762.00;3137.28
764.00;3142.32
766.00;3125.94
768.00;3124.95
770.00;3122.74
772.00;3119.64
774.00;3113.43
776.00;3111.86
778.00;3101.51
780.00;3107.16
782.00;3104.69
784.00;3104.95
786.00;3106.20
788.00;3113.04
790.00;3105.67
792.00;3094.23
794.00;3093.88
796.00;3090.11
798.00;3092.81
800.00;3095.50
802.00;3098.98
804.00;3095.78
806.00;3089.12
808.00;3106.19
810.00;3120.19
812.00;3119.35
814.00;3116.23
816.00;3109.75
818.00;3112.92
820.00;3098.64
822.00;3089.78
824.00;3093.33
826.00;3086.88
828.00;3085.43
830.00;3089.91
832.00;3090.09
834.00;3086.98
836.00;3079.96
838.00;3085.38
840.00;3087.85
842.00;3080.30
844.00;3105.91
846.00;3115.12
848.00;3122.90
850.00;3108.41
852.00;3108.07
854.00;3106.68
856.00;3111.57
858.00;3103.61
860.00;3090.66
862.00;3089.31
864.00;3087.57
866.00;3090.06
868.00;3090.25
870.00;3085.40
872.00;3094.75
874.00;3089.25
876.00;3094.54
878.00;3092.57
880.00;3096.25
882.00;3091.55
884.00;3084.22
886.00;3070.63
888.00;3065.17
890.00;3066.84
892.00;3063.04
894.00;3070.83
896.00;3067.33
898.00;3067.86
900.00;3060.92
902.00;3052.61
904.00;3038.96
906.00;3032.56
908.00;3035.47
910.00;3042.95
912.00;3050.27
914.00;3056.48
916.00;3074.40
918.00;3078.35
920.00;3088.44
922.00;3089.33
924.00;3089.88
926.00;3081.66
928.00;3077.25
930.00;3081.80
932.00;3094.43
934.00;3111.97
936.00;3133.88
938.00;3162.36
940.00;3188.30
942.00;3220.40
944.00;3259.55
946.00;3301.20
948.00;3367.89
950.00;3471.00
952.00;3570.16
954.00;3678.14
956.00;3791.38
958.00;3859.27
960.00;3884.70
962.00;3851.96
964.00;3762.32
966.00;3636.98
968.00;3500.86
970.00;3378.88
972.00;3270.27
974.00;3193.17
976.00;3121.21
978.00;3084.17
980.00;3045.99
982.00;3021.25
984.00;3003.82
986.00;2992.10
988.00;2985.09
990.00;2986.83
992.00;2974.81
994.00;2978.71
996.00;2984.15
998.00;2983.24
1000.00;2986.94
1002.00;2996.20
1004.00;2989.88
1006.00;2987.62
1008.00;2989.83
1010.00;2974.89
1012.00;2968.07
1014.00;2969.14
1016.00;2966.65
1018.00;2987.62
1020.00;2985.48
1022.00;2984.79
1024.00;2993.40
1026.00;2993.76
1028.00;2993.65
1030.00;2985.00
1032.00;2982.75
1034.00;2986.74
1036.00;2997.02
1038.00;2988.73
1040.00;2987.19
1042.00;2983.92
1044.00;2989.51
1046.00;2984.57
1048.00;2981.01
1050.00;2987.49
1052.00;2969.91
1054.00;2968.73
1056.00;2979.46
1058.00;2989.69
1060.00;2996.69
1062.00;3005.60
1064.00;3011.51
1066.00;3025.24
1068.00;3031.41
1070.00;3044.34
1072.00;3032.90
1074.00;3029.22
1076.00;3017.39
1078.00;2994.59
1080.00;2964.44
1082.00;2941.55
1084.00;2931.53
1086.00;2928.09
1088.00;2908.34
1090.00;2896.52
1092.00;2887.36
1094.00;2869.44
1096.00;2859.53
1098.00;2856.34
1100.00;2850.88
1102.00;2844.83
1104.00;2844.35
1106.00;2849.94
1108.00;2843.06
1110.00;2837.86
1112.00;2821.57
1114.00;2825.98
1116.00;2804.54
1118.00;2790.90
1120.00;2794.85
1122.00;2777.96
1124.00;2783.49
1126.00;2777.51
1128.00;2785.44
1130.00;2772.36
1132.00;2777.70
1134.00;2775.76
1136.00;2753.54
1138.00;2759.60
1140.00;2758.02
1142.00;2763.44
1144.00;2749.27
1146.00;2749.97
1148.00;2746.77
1150.00;2746.60
1152.00;2742.59
1154.00;2736.93
1156.00;2745.09
1158.00;2738.60
1160.00;2752.20
1162.00;2754.73
1164.00;2745.92
1166.00;2743.44
1168.00;2736.10
1170.00;2733.13
1172.00;2724.55
1174.00;2731.51
1176.00;2729.88
1178.00;2725.30
1180.00;2724.41
1182.00;2724.30
1184.00;2714.02
1186.00;2714.18
1188.00;2720.15
1190.00;2717.60
1192.00;2712.69
1194.00;2712.74
1196.00;2712.02
1198.00;2713.57
1200.00;2715.93
1202.00;2708.54
1204.00;2711.41
1206.00;2707.14
1208.00;2715.48
1210.00;2709.31
1212.00;2703.51
1214.00;2702.81
1216.00;2702.60
1218.00;2700.59
1220.00;2687.71
1222.00;2688.78
1224.00;2689.30
1226.00;2701.33
1228.00;2700.40
1230.00;2708.14
1232.00;2722.07
1234.00;2718.71
1236.00;2726.89
1238.00;2729.75
1240.00;2733.47
1242.00;2737.16
1244.00;2729.49
1246.00;2723.18
1248.00;2716.80
1250.00;2709.24
1252.00;2701.17
1254.00;2703.02
1256.00;2699.44
1258.00;2702.51
1260.00;2700.13
1262.00;2709.70
1264.00;2705.69
1266.00;2709.25
1268.00;2697.16
1270.00;2692.21
1272.00;2688.06
1274.00;2691.91
1276.00;2684.79
1278.00;2680.62
1280.00;2672.81
1282.00;2673.46
1284.00;2669.32
1286.00;2659.06
1288.00;2644.50
1290.00;2645.89
1292.00;2636.24
1294.00;2630.87
1296.00;2624.99
1298.00;2610.36
1300.00;2611.80
1302.00;2610.71
1304.00;2602.03
1306.00;2602.29
1308.00;2610.19
1310.00;2612.43
1312.00;2611.84
1314.00;2607.37
1316.00;2611.56
1318.00;2607.07
1320.00;2606.76
1322.00;2599.34
1324.00;2593.10
1326.00;2591.26
1328.00;2596.17
1330.00;2589.43
1332.00;2581.95
1334.00;2587.49
1336.00;2593.05
1338.00;2584.13
1340.00;2584.12
1342.00;2584.10
1344.00;2579.68
1346.00;2573.13
1348.00;2570.92
1350.00;2570.36
1352.00;2558.37
1354.00;2556.48
1356.00;2556.72
1358.00;2548.15
1360.00;2543.72
1362.00;2545.39
1364.00;2544.87
1366.00;2539.57
1368.00;2543.00
1370.00;2541.12
1372.00;2536.33
1374.00;2545.96
1376.00;2542.55
1378.00;2537.84
1380.00;2536.21
1382.00;2538.35
1384.00;2542.24
1386.00;2536.00
1388.00;2531.07
1390.00;2526.22
1392.00;2519.56
1394.00;2532.36
1396.00;2528.81
1398.00;2525.44
1400.00;2510.17
1402.00;2506.79
1404.00;2519.83
1406.00;2517.21
1408.00;2506.85
1410.00;2512.64
1412.00;2509.88
1414.00;2503.63
1416.00;2499.74
1418.00;2508.98
1420.00;2516.80
1422.00;2511.14
1424.00;2510.09
1426.00;2504.97
1428.00;2502.13
1430.00;2500.92
1432.00;2490.20
1434.00;2485.91
1436.00;2490.92
1438.00;2507.42
1440.00;2511.42
1442.00;2511.64
1444.00;2523.90
1446.00;2523.65
1448.00;2527.91
1450.00;2533.08
1452.00;2520.94
1454.00;2519.41
1456.00;2510.21
1458.00;2508.04
1460.00;2506.54
1462.00;2499.34
1464.00;2489.96
1466.00;2485.03
1468.00;2479.07
1470.00;2451.64
1472.00;2444.81
1474.00;2440.99
1476.00;2423.39
1478.00;2412.93
1480.00;2403.85
1482.00;2392.37
1484.00;2396.92
1486.00;2382.52
1488.00;2373.20
1490.00;2374.69
1492.00;2372.75
1494.00;2363.11
1496.00;2357.63
1498.00;2353.20
1500.00;2350.20
1502.00;2356.02
1504.00;2346.26
1506.00;2343.41
1508.00;2347.52
1510.00;2338.54
1512.00;2325.72
1514.00;2332.78
1516.00;2335.07
1518.00;2330.99
1520.00;2326.42
1522.00;2325.52
1524.00;2332.09
1526.00;2317.39
1528.00;2321.48
1530.00;2307.78
1532.00;2301.06
1534.00;2316.54
1536.00;2307.21
1538.00;2307.66
1540.00;2299.34
1542.00;2302.94
1544.00;2300.42
1546.00;2295.51
1548.00;2296.92
1550.00;2290.96
1552.00;2289.19
1554.00;2292.33
1556.00;2276.19
1558.00;2274.66
1560.00;2264.72
1562.00;2271.28
1564.00;2264.86
1566.00;2258.37
1568.00;2256.50
1570.00;2262.70
1572.00;2250.18
1574.00;2245.05
1576.00;2256.19
1578.00;2255.43
1580.00;2254.94
1582.00;2248.16
1584.00;2259.76
1586.00;2249.31
1588.00;2251.76
1590.00;2249.86
1592.00;2254.70
1594.00;2256.17
1596.00;2252.45
1598.00;2241.19
1600.00;2246.40
1602.00;2246.92
1604.00;2237.69
1606.00;2244.18
1608.00;2245.56
1610.00;2250.60
1612.00;2233.22
1614.00;2235.95
1616.00;2230.45
1618.00;2231.36
1620.00;2246.77
1622.00;2241.96
1624.00;2250.70
1626.00;2241.42
1628.00;2236.39
1630.00;2241.21
1632.00;2253.27
1634.00;2251.68
1636.00;2248.11
1638.00;2249.44
1640.00;2263.32
1642.00;2248.23
1644.00;2247.89
1646.00;2245.16
1648.00;2230.16
1650.00;2233.05
1652.00;2229.60
1654.00;2239.65
1656.00;2232.81
1658.00;2226.17
1660.00;2236.60
1662.00;2234.97
1664.00;2222.56
1666.00;2218.97
1668.00;2231.91
1670.00;2230.25
1672.00;2227.81
1674.00;2214.09
1676.00;2208.56
1678.00;2202.16
1680.00;2192.84
1682.00;2180.73
1684.00;2187.74
1686.00;2172.50
1688.00;2167.78
1690.00;2175.79
1692.00;2148.75
1694.00;2144.91
1696.00;2124.80
1698.00;2122.45
1700.00;2122.78
1702.00;2116.40
1704.00;2097.77
1706.00;2098.90
1708.00;2089.90
1710.00;2084.89
1712.00;2079.73
1714.00;2062.60
1716.00;2081.48
1718.00;2072.77
1720.00;2061.43
1722.00;2041.40
1724.00;2048.19
1726.00;2053.99
1728.00;2045.44
1730.00;2043.59
1732.00;2031.41
1734.00;2034.07
1736.00;2041.18
1738.00;2014.50
1740.00;2030.05
1742.00;2026.37
1744.00;2026.44
1746.00;2014.35
1748.00;2012.15
1750.00;2010.81
1752.00;2014.67
1754.00;2006.97
1756.00;2001.25
1758.00;2006.74
1760.00;2000.10
1762.00;2005.57
1764.00;2001.86
1766.00;1991.46
1768.00;1987.71
1770.00;1996.47
1772.00;1995.53
1774.00;1973.00
1776.00;1990.74
1778.00;1978.53
1780.00;1969.28
1782.00;1972.49
1784.00;1966.80
1786.00;1971.83
1788.00;1967.53
1790.00;1951.19
1792.00;1950.75
1794.00;1948.27
1796.00;1948.90
1798.00;1955.01
1800.00;1948.22
1802.00;1960.44
1804.00;1954.27
1806.00;1946.13
1808.00;1938.67
1810.00;1939.01
1812.00;1936.23
1814.00;1941.71
1816.00;1927.79
1818.00;1939.10
1820.00;1921.77
1822.00;1911.87
1824.00;1920.88
1826.00;1920.34
1828.00;1916.53
1830.00;1912.35
1832.00;1893.40
1834.00;1903.85
1836.00;1903.13
1838.00;1898.66
1840.00;1894.45
1842.00;1895.79
1844.00;1894.42
1846.00;1896.11
1848.00;1886.18
1850.00;1869.91
1852.00;1891.01
1854.00;1877.14
1856.00;1894.71
1858.00;1872.65
1860.00;1868.93
1862.00;1872.92
1864.00;1860.45
1866.00;1852.54
1868.00;1857.52
1870.00;1846.66
1872.00;1855.61
1874.00;1841.49
1876.00;1849.95
1878.00;1841.09
1880.00;1833.36
1882.00;1826.92
1884.00;1831.53
1886.00;1841.68
1888.00;1833.99
1890.00;1830.66
1892.00;1828.91
1894.00;1811.84
1896.00;1822.29
1898.00;1801.50
1900.00;1820.70
1902.00;1801.14
1904.00;1813.27
1906.00;1800.65
1908.00;1808.97
1910.00;1808.31
1912.00;1816.50
1914.00;1805.95
1916.00;1796.83
1918.00;1784.62
1920.00;1789.12
1922.00;1798.14
1924.00;1787.69
1926.00;1785.53
1928.00;1784.69
1930.00;1778.09
1932.00;1776.65
1934.00;1760.29
1936.00;1777.36
1938.00;1756.74
1940.00;1760.03
1942.00;1765.33
1944.00;1758.67
1946.00;1758.35
1948.00;1752.30
1950.00;1759.92
1952.00;1743.35
1954.00;1749.22
1956.00;1754.98
1958.00;1752.04
1960.00;1747.41
1962.00;1749.80
1964.00;1736.78
1966.00;1734.40
1968.00;1725.87
1970.00;1741.35
1972.00;1720.68
1974.00;1715.96
1976.00;1699.57
1978.00;1712.16
1980.00;1716.49
1982.00;1699.51
1984.00;1706.92
1986.00;1687.96
1988.00;1705.20
1990.00;1699.82
1992.00;1697.68
1994.00;1696.35
1996.00;1687.90
1998.00;1702.80
2000.00;1693.05
2002.00;1697.79
2004.00;1689.52
2006.00;1681.68
2008.00;1677.38
2010.00;1685.32
2012.00;1684.31
2014.00;1678.73
2016.00;1676.04
2018.00;1678.24
2020.00;1680.59
2022.00;1662.07
2024.00;1675.76
2026.00;1662.86
2028.00;1675.13
2030.00;1660.36
2032.00;1669.91
2034.00;1657.76
2036.00;1650.29
2038.00;1653.51
2040.00;1651.35
2042.00;1629.35
2044.00;1631.80
2046.00;1621.74
2048.00;1624.67
2050.00;1628.46
2052.00;1638.20
2054.00;1621.27
2056.00;1631.40
2058.00;1641.19
2060.00;1621.74
2062.00;1622.36
2064.00;1602.88
2066.00;1615.20
2068.00;1600.02
2070.00;1613.46
2072.00;1613.24
2074.00;1600.40
2076.00;1607.86
2078.00;1595.90
2080.00;1599.68
2082.00;1599.82
2084.00;1589.74
2086.00;1585.04
2088.00;1585.35
2090.00;1593.05
2092.00;1602.34
2094.00;1588.41
2096.00;1601.33
2098.00;1572.59
2100.00;1595.61
2102.00;1587.28
2104.00;1573.90
2106.00;1570.46
2108.00;1553.12
2110.00;1564.94
2112.00;1552.80
2114.00;1558.41
2116.00;1567.76
2118.00;1565.19
2120.00;1541.41
2122.00;1553.18
2124.00;1550.43
2126.00;1553.92
2128.00;1551.10
2130.00;1535.37
2132.00;1524.58
2134.00;1521.06
2136.00;1538.97
2138.00;1534.87
2140.00;1538.03
2142.00;1539.95
2144.00;1528.78
2146.00;1529.01
2148.00;1516.70
2150.00;1529.76
2152.00;1508.57
2154.00;1522.94
2156.00;1512.98
2158.00;1514.06
2160.00;1506.77
2162.00;1518.35
2164.00;1504.78
2166.00;1513.14
2168.00;1519.09
2170.00;1496.73
2172.00;1496.32
2174.00;1486.13
2176.00;1502.21
2178.00;1498.21
2180.00;1511.55
2182.00;1490.87
2184.00;1477.07
2186.00;1483.73
2188.00;1485.69
2190.00;1488.62
2192.00;1486.17
2194.00;1472.41
2196.00;1484.71
2198.00;1483.65
2200.00;1480.06
2202.00;1469.42
2204.00;1476.60
2206.00;1480.15
2208.00;1481.35
2210.00;1483.27
2212.00;1461.65
2214.00;1475.37
2216.00;1461.12
2218.00;1468.32
2220.00;1455.35
2222.00;1474.54
2224.00;1440.16
2226.00;1451.75
2228.00;1433.51
2230.00;1438.58
2232.00;1417.02
2234.00;1433.63
2236.00;1436.19
2238.00;1444.70
2240.00;1437.51
2242.00;1428.95
2244.00;1409.13
2246.00;1421.99
2248.00;1418.75
2250.00;1424.90
2252.00;1414.67
2254.00;1405.69
2256.00;1404.55
2258.00;1394.83
2260.00;1425.39
2262.00;1423.96
2264.00;1427.06
2266.00;1417.89
2268.00;1383.82
2270.00;1412.58
2272.00;1403.92
2274.00;1408.25
2276.00;1387.32
2278.00;1394.63
2280.00;1388.43
2282.00;1399.89
2284.00;1395.01
2286.00;1410.40
2288.00;1381.65
2290.00;1376.47
2292.00;1380.58
2294.00;1395.19
2296.00;1370.52
2298.00;1370.27
2300.00;1376.28
[ANALYSIS RESULT]
Analysis_Type;None
