AP Cora 5001
Software_Version;1.4.1
[SAMPLE]
Sample_Name;Sample_1_plexiform3
Method;
[PARAMETERS]
Instrument_Type;Cora 5001
Instrument_SN;99119713
Last_SST;3/28/2024 12:19:13 PM +00:00
User_Name;labmanager
Measurement_Started;3/28/2024 3:42:15 PM
Measurement_Finished;3/28/2024 3:43:16 PM
Measurement_Saved;3/28/2024 3:43:16 PM
Wavelength;785
Laser_Power;30
Auto_Exposure;False
Exposure_Time;10000
Averaged_Spectra;3
Probe_Type;Regular Probe (785 nm)
Probe_SN;99101107
Dark_Background;True
User_Background_Spectrum;
Spike_Removal;True
Baseline_Correction;False
Smoothing;False
Normalization;None
[SPECTRUM QUALITY]
Quality_Saturation;False
Quality_SBR;NaN
Quality_Temperature;False
[SPECTRUM]
100.00;6315.79
102.00;6215.47
104.00;6092.80
106.00;5938.06
108.00;5775.94
110.00;5598.95
112.00;5391.26
114.00;5166.23
116.00;4926.75
118.00;4694.29
120.00;4473.94
122.00;4243.91
124.00;4023.85
126.00;3815.10
128.00;3635.17
130.00;3464.37
132.00;3288.81
134.00;3137.47
136.00;3006.27
138.00;2877.51
140.00;2758.55
142.00;2654.45
144.00;2567.75
146.00;2491.22
148.00;2417.88
150.00;2362.82
152.00;2311.83
154.00;2270.25
156.00;2221.07
158.00;2196.43
160.00;2175.39
162.00;2156.21
164.00;2137.40
166.00;2124.28
168.00;2112.27
170.00;2095.02
172.00;2084.40
174.00;2073.05
176.00;2062.65
178.00;2054.33
180.00;2043.02
182.00;2038.15
184.00;2026.89
186.00;2015.21
188.00;2014.89
190.00;2005.52
192.00;1997.99
194.00;1985.17
196.00;1989.55
198.00;1981.84
200.00;1970.43
202.00;1968.78
204.00;1972.09
206.00;1971.99
208.00;1973.80
210.00;1975.53
212.00;1973.73
214.00;1965.91
216.00;1968.36
218.00;1972.71
220.00;1965.34
222.00;1961.90
224.00;1966.85
226.00;1967.62
228.00;1959.78
230.00;1951.51
232.00;1952.01
234.00;1958.32
236.00;1960.45
238.00;1958.81
240.00;1954.21
242.00;1957.92
244.00;1954.71
246.00;1963.62
248.00;1957.99
250.00;1962.01
252.00;1972.19
254.00;1975.51
256.00;1973.69
258.00;1971.99
260.00;1979.15
262.00;1983.58
264.00;1984.01
266.00;1981.43
268.00;1983.28
270.00;1981.85
272.00;1985.44
274.00;1995.22
276.00;1991.54
278.00;1988.05
280.00;1990.18
282.00;1989.62
284.00;1991.89
286.00;1991.93
288.00;1990.48
290.00;1993.20
292.00;1993.28
294.00;1991.57
296.00;1989.54
298.00;1983.42
300.00;1988.58
302.00;1988.85
304.00;1985.47
306.00;1985.80
308.00;1993.01
310.00;1987.62
312.00;1987.37
314.00;1987.39
316.00;1989.39
318.00;1989.31
320.00;1981.10
322.00;1984.84
324.00;1988.33
326.00;1983.77
328.00;1982.23
330.00;1983.89
332.00;1981.83
334.00;1983.07
336.00;1988.75
338.00;1987.57
340.00;1986.92
342.00;1990.84
344.00;1987.09
346.00;1981.59
348.00;1978.84
350.00;1974.61
352.00;1975.18
354.00;1981.35
356.00;1987.10
358.00;1988.61
360.00;1980.12
362.00;1972.83
364.00;1974.95
366.00;1970.02
368.00;1969.00
370.00;1972.61
372.00;1968.11
374.00;1975.58
376.00;1980.60
378.00;1981.78
380.00;1988.63
382.00;1987.01
384.00;1987.31
386.00;1988.36
388.00;1988.87
390.00;1994.81
392.00;1992.06
394.00;1997.64
396.00;1989.32
398.00;1994.91
400.00;2003.12
402.00;1994.37
404.00;1991.61
406.00;2005.37
408.00;2010.38
410.00;2011.89
412.00;2017.79
414.00;2023.90
416.00;2032.10
418.00;2031.91
420.00;2040.77
422.00;2039.28
424.00;2046.93
426.00;2057.28
428.00;2051.86
430.00;2053.50
432.00;2059.56
434.00;2059.53
436.00;2054.50
438.00;2056.21
440.00;2060.01
442.00;2057.51
444.00;2057.16
446.00;2058.56
448.00;2061.40
450.00;2054.18
452.00;2049.04
454.00;2047.43
456.00;2036.86
458.00;2037.73
460.00;2034.69
462.00;2030.80
464.00;2034.61
466.00;2023.41
468.00;2026.13
470.00;2023.04
472.00;2018.21
474.00;2014.39
476.00;2004.64
478.00;1991.38
480.00;1992.63
482.00;1987.23
484.00;1986.82
486.00;1994.01
488.00;1989.09
490.00;1993.63
492.00;1998.44
494.00;1996.79
496.00;1996.53
498.00;1990.64
500.00;1993.07
502.00;1988.91
504.00;1985.71
506.00;1989.33
508.00;1991.40
510.00;1993.03
512.00;1992.11
514.00;2001.21
516.00;1999.48
518.00;2002.43
520.00;2003.77
522.00;2006.69
524.00;2005.43
526.00;2002.09
528.00;2010.87
530.00;2019.12
532.00;2016.79
534.00;2012.40
536.00;2016.61
538.00;2012.57
540.00;2014.10
542.00;2012.27
544.00;2016.46
546.00;2013.00
548.00;2016.62
550.00;2021.16
552.00;2019.76
554.00;2021.85
556.00;2034.24
558.00;2035.33
560.00;2028.19
562.00;2031.19
564.00;2031.34
566.00;2037.72
568.00;2041.63
570.00;2039.69
572.00;2054.65
574.00;2062.47
576.00;2072.00
578.00;2076.81
580.00;2074.13
582.00;2074.21
584.00;2079.33
586.00;2077.37
588.00;2072.76
590.00;2064.31
592.00;2069.49
594.00;2069.54
596.00;2065.73
598.00;2058.44
600.00;2047.56
602.00;2050.05
604.00;2042.93
606.00;2041.05
608.00;2034.18
610.00;2025.12
612.00;2035.23
614.00;2027.46
616.00;2027.56
618.00;2026.49
620.00;2022.80
622.00;2025.85
624.00;2020.29
626.00;2015.93
628.00;2004.06
630.00;1989.63
632.00;1992.89
634.00;1991.92
636.00;1990.51
638.00;1991.00
640.00;1990.67
642.00;1989.22
644.00;1982.85
646.00;1980.52
648.00;1986.23
650.00;1978.82
652.00;1979.28
654.00;1980.19
656.00;1984.52
658.00;1986.80
660.00;1979.93
662.00;1982.14
664.00;1981.93
666.00;1979.95
668.00;1983.00
670.00;1982.22
672.00;1986.51
674.00;1983.70
676.00;1980.96
678.00;1974.86
680.00;1973.35
682.00;1976.88
684.00;1973.61
686.00;1977.01
688.00;1975.31
690.00;1975.10
692.00;1975.42
694.00;1975.61
696.00;1982.32
698.00;1983.94
700.00;1978.57
702.00;1975.18
704.00;1972.25
706.00;1971.99
708.00;1973.14
710.00;1969.63
712.00;1966.68
714.00;1964.66
716.00;1971.30
718.00;1978.38
720.00;1971.42
722.00;1969.85
724.00;1969.24
726.00;1972.41
728.00;1975.63
730.00;1971.90
732.00;1970.00
734.00;1968.05
736.00;1970.67
738.00;1963.45
740.00;1961.81
742.00;1960.83
744.00;1961.55
746.00;1958.63
748.00;1960.51
750.00;1956.84
752.00;1966.16
754.00;1960.62
756.00;1959.75
758.00;1957.87
760.00;1954.29
762.00;1958.18
764.00;1956.87
766.00;1953.97
768.00;1952.04
770.00;1950.53
772.00;1947.17
774.00;1948.07
776.00;1946.95
778.00;1948.70
780.00;1946.48
782.00;1945.89
784.00;1945.74
786.00;1940.95
788.00;1939.75
790.00;1940.91
792.00;1944.16
794.00;1940.64
796.00;1942.09
798.00;1944.00
800.00;1939.40
802.00;1938.29
804.00;1939.96
806.00;1946.61
808.00;1949.43
810.00;1963.57
812.00;1965.88
814.00;1963.58
816.00;1968.29
818.00;1956.08
820.00;1955.04
822.00;1946.68
824.00;1948.60
826.00;1944.41
828.00;1940.29
830.00;1950.21
832.00;1951.81
834.00;1945.09
836.00;1949.45
838.00;1945.89
840.00;1940.83
842.00;1945.51
844.00;1954.86
846.00;1972.17
848.00;1977.77
850.00;1972.84
852.00;1972.56
854.00;1971.37
856.00;1975.08
858.00;1972.41
860.00;1958.99
862.00;1970.25
864.00;1964.16
866.00;1956.84
868.00;1957.70
870.00;1965.89
872.00;1960.04
874.00;1966.72
876.00;1967.13
878.00;1961.37
880.00;1961.83
882.00;1956.55
884.00;1953.18
886.00;1953.98
888.00;1953.69
890.00;1955.34
892.00;1955.57
894.00;1947.36
896.00;1946.51
898.00;1948.40
900.00;1945.59
902.00;1951.00
904.00;1944.63
906.00;1935.24
908.00;1942.47
910.00;1949.33
912.00;1950.17
914.00;1953.46
916.00;1966.03
918.00;1977.74
920.00;1982.39
922.00;1978.52
924.00;1981.60
926.00;1982.34
928.00;1986.10
930.00;1992.55
932.00;1995.40
934.00;2003.01
936.00;2023.91
938.00;2039.04
940.00;2065.95
942.00;2092.05
944.00;2112.48
946.00;2161.73
948.00;2217.53
950.00;2285.52
952.00;2360.44
954.00;2450.42
956.00;2536.82
958.00;2593.57
960.00;2624.81
962.00;2613.10
964.00;2547.91
966.00;2450.95
968.00;2346.45
970.00;2253.61
972.00;2164.25
974.00;2089.66
976.00;2036.45
978.00;1998.18
980.00;1973.23
982.00;1952.32
984.00;1945.65
986.00;1927.42
988.00;1920.48
990.00;1925.05
992.00;1918.02
994.00;1918.08
996.00;1921.68
998.00;1925.89
1000.00;1924.62
1002.00;1929.82
1004.00;1926.53
1006.00;1922.80
1008.00;1922.94
1010.00;1925.57
1012.00;1914.15
1014.00;1915.96
1016.00;1915.40
1018.00;1920.92
1020.00;1927.25
1022.00;1927.02
1024.00;1922.52
1026.00;1925.03
1028.00;1930.60
1030.00;1923.08
1032.00;1928.23
1034.00;1929.32
1036.00;1922.41
1038.00;1926.63
1040.00;1924.44
1042.00;1920.48
1044.00;1931.35
1046.00;1923.04
1048.00;1931.24
1050.00;1932.51
1052.00;1922.37
1054.00;1926.88
1056.00;1928.93
1058.00;1932.18
1060.00;1938.34
1062.00;1952.47
1064.00;1959.81
1066.00;1972.18
1068.00;1968.91
1070.00;1974.24
1072.00;1979.29
1074.00;1980.13
1076.00;1979.98
1078.00;1954.85
1080.00;1939.40
1082.00;1926.85
1084.00;1909.80
1086.00;1901.11
1088.00;1894.77
1090.00;1891.31
1092.00;1880.12
1094.00;1874.15
1096.00;1860.51
1098.00;1861.03
1100.00;1862.49
1102.00;1853.16
1104.00;1852.80
1106.00;1856.00
1108.00;1846.91
1110.00;1838.28
1112.00;1828.47
1114.00;1824.90
1116.00;1814.16
1118.00;1805.91
1120.00;1808.62
1122.00;1803.41
1124.00;1807.15
1126.00;1809.03
1128.00;1809.67
1130.00;1806.14
1132.00;1797.03
1134.00;1793.59
1136.00;1794.08
1138.00;1785.82
1140.00;1793.50
1142.00;1789.22
1144.00;1786.05
1146.00;1781.72
1148.00;1778.73
1150.00;1775.52
1152.00;1777.11
1154.00;1779.86
1156.00;1787.47
1158.00;1793.78
1160.00;1789.81
1162.00;1789.11
1164.00;1785.32
1166.00;1777.50
1168.00;1774.96
1170.00;1771.48
1172.00;1778.82
1174.00;1779.55
1176.00;1777.76
1178.00;1780.05
1180.00;1775.64
1182.00;1777.93
1184.00;1769.70
1186.00;1774.31
1188.00;1774.64
1190.00;1777.94
1192.00;1767.89
1194.00;1769.02
1196.00;1770.29
1198.00;1775.85
1200.00;1776.19
1202.00;1781.13
1204.00;1776.04
1206.00;1773.02
1208.00;1774.86
1210.00;1770.41
1212.00;1773.37
1214.00;1766.80
1216.00;1766.34
1218.00;1768.78
1220.00;1757.36
1222.00;1765.12
1224.00;1758.73
1226.00;1763.07
1228.00;1767.90
1230.00;1771.88
1232.00;1777.56
1234.00;1793.83
1236.00;1788.67
1238.00;1800.24
1240.00;1801.78
1242.00;1805.22
1244.00;1802.56
1246.00;1794.38
1248.00;1794.52
1250.00;1793.48
1252.00;1793.18
1254.00;1785.82
1256.00;1791.67
1258.00;1781.06
1260.00;1782.25
1262.00;1780.85
1264.00;1783.28
1266.00;1790.78
1268.00;1779.29
1270.00;1773.94
1272.00;1779.41
1274.00;1773.65
1276.00;1777.07
1278.00;1769.95
1280.00;1767.11
1282.00;1758.61
1284.00;1765.73
1286.00;1750.85
1288.00;1745.26
1290.00;1741.29
1292.00;1748.04
1294.00;1737.26
1296.00;1736.83
1298.00;1726.88
1300.00;1721.14
1302.00;1728.80
1304.00;1729.82
1306.00;1733.18
1308.00;1727.73
1310.00;1727.24
1312.00;1728.15
1314.00;1725.87
1316.00;1724.28
1318.00;1726.35
1320.00;1726.13
1322.00;1720.64
1324.00;1717.03
1326.00;1717.51
1328.00;1710.67
1330.00;1713.82
1332.00;1712.52
1334.00;1707.92
1336.00;1716.72
1338.00;1720.11
1340.00;1712.05
1342.00;1703.62
1344.00;1700.26
1346.00;1703.36
1348.00;1704.40
1350.00;1691.53
1352.00;1699.01
1354.00;1701.66
1356.00;1691.08
1358.00;1692.22
1360.00;1693.79
1362.00;1682.59
1364.00;1677.31
1366.00;1684.77
1368.00;1692.78
1370.00;1682.11
1372.00;1679.02
1374.00;1686.29
1376.00;1685.86
1378.00;1679.67
1380.00;1678.36
1382.00;1684.49
1384.00;1681.90
1386.00;1685.68
1388.00;1686.15
1390.00;1684.74
1392.00;1686.72
1394.00;1687.18
1396.00;1686.23
1398.00;1678.44
1400.00;1674.36
1402.00;1671.20
1404.00;1677.35
1406.00;1676.63
1408.00;1670.32
1410.00;1677.41
1412.00;1665.83
1414.00;1663.83
1416.00;1666.41
1418.00;1667.15
1420.00;1679.64
1422.00;1682.82
1424.00;1673.51
1426.00;1673.55
1428.00;1669.25
1430.00;1671.03
1432.00;1667.58
1434.00;1671.91
1436.00;1667.83
1438.00;1677.37
1440.00;1682.61
1442.00;1693.87
1444.00;1689.41
1446.00;1700.02
1448.00;1712.99
1450.00;1702.89
1452.00;1702.38
1454.00;1689.41
1456.00;1688.65
1458.00;1684.62
1460.00;1682.45
1462.00;1693.98
1464.00;1673.20
1466.00;1668.68
1468.00;1667.23
1470.00;1651.69
1472.00;1638.46
1474.00;1642.89
1476.00;1624.59
1478.00;1624.63
1480.00;1620.09
1482.00;1601.42
1484.00;1602.51
1486.00;1605.31
1488.00;1596.78
1490.00;1590.59
1492.00;1585.58
1494.00;1580.01
1496.00;1575.25
1498.00;1579.50
1500.00;1572.71
1502.00;1575.23
1504.00;1571.08
1506.00;1570.75
1508.00;1564.93
1510.00;1562.53
1512.00;1567.60
1514.00;1558.63
1516.00;1556.45
1518.00;1559.73
1520.00;1556.67
1522.00;1555.84
1524.00;1549.59
1526.00;1550.40
1528.00;1548.12
1530.00;1551.18
1532.00;1550.09
1534.00;1536.74
1536.00;1549.55
1538.00;1539.78
1540.00;1540.14
1542.00;1540.36
1544.00;1547.56
1546.00;1539.88
1548.00;1530.07
1550.00;1534.58
1552.00;1521.69
1554.00;1523.20
1556.00;1526.69
1558.00;1518.30
1560.00;1511.47
1562.00;1527.44
1564.00;1533.39
1566.00;1531.14
1568.00;1514.42
1570.00;1516.68
1572.00;1513.68
1574.00;1517.71
1576.00;1512.87
1578.00;1521.57
1580.00;1518.79
1582.00;1517.12
1584.00;1524.29
1586.00;1516.28
1588.00;1514.26
1590.00;1513.10
1592.00;1511.91
1594.00;1513.46
1596.00;1514.69
1598.00;1513.13
1600.00;1519.93
1602.00;1535.61
1604.00;1498.91
1606.00;1516.84
1608.00;1513.27
1610.00;1501.95
1612.00;1513.38
1614.00;1508.58
1616.00;1509.61
1618.00;1508.75
1620.00;1505.23
1622.00;1513.09
1624.00;1514.80
1626.00;1514.91
1628.00;1517.56
1630.00;1526.82
1632.00;1522.81
1634.00;1524.54
1636.00;1528.61
1638.00;1519.85
1640.00;1526.15
1642.00;1522.77
1644.00;1516.45
1646.00;1510.86
1648.00;1508.38
1650.00;1519.78
1652.00;1513.70
1654.00;1512.45
1656.00;1503.59
1658.00;1503.39
1660.00;1522.80
1662.00;1521.71
1664.00;1515.16
1666.00;1506.79
1668.00;1517.00
1670.00;1513.48
1672.00;1503.01
1674.00;1503.89
1676.00;1505.21
1678.00;1506.20
1680.00;1505.25
1682.00;1495.08
1684.00;1480.98
1686.00;1480.22
1688.00;1474.55
1690.00;1466.51
1692.00;1455.73
1694.00;1446.98
1696.00;1438.84
1698.00;1454.56
1700.00;1430.07
1702.00;1433.69
1704.00;1418.28
1706.00;1411.62
1708.00;1410.41
1710.00;1404.26
1712.00;1405.60
1714.00;1406.40
1716.00;1395.31
1718.00;1397.68
1720.00;1400.76
1722.00;1366.26
1724.00;1380.74
1726.00;1389.88
1728.00;1380.42
1730.00;1382.49
1732.00;1375.25
1734.00;1367.41
1736.00;1367.40
1738.00;1356.65
1740.00;1360.13
1742.00;1360.47
1744.00;1366.27
1746.00;1360.96
1748.00;1362.37
1750.00;1361.72
1752.00;1358.43
1754.00;1366.90
1756.00;1357.26
1758.00;1369.13
1760.00;1352.17
1762.00;1345.70
1764.00;1345.98
1766.00;1334.85
1768.00;1335.13
1770.00;1326.33
1772.00;1341.10
1774.00;1339.16
1776.00;1338.66
1778.00;1344.35
1780.00;1334.25
1782.00;1335.41
1784.00;1334.93
1786.00;1319.48
1788.00;1318.90
1790.00;1320.37
1792.00;1308.03
1794.00;1315.13
1796.00;1316.27
1798.00;1318.78
1800.00;1322.45
1802.00;1325.16
1804.00;1318.95
1806.00;1316.20
1808.00;1305.56
1810.00;1309.19
1812.00;1305.72
1814.00;1300.50
1816.00;1301.76
1818.00;1297.19
1820.00;1298.42
1822.00;1293.78
1824.00;1294.99
1826.00;1287.22
1828.00;1298.05
1830.00;1287.39
1832.00;1288.96
1834.00;1285.91
1836.00;1281.32
1838.00;1273.11
1840.00;1272.45
1842.00;1282.00
1844.00;1266.55
1846.00;1273.27
1848.00;1273.31
1850.00;1279.46
1852.00;1272.63
1854.00;1264.94
1856.00;1262.96
1858.00;1263.07
1860.00;1263.11
1862.00;1260.51
1864.00;1257.93
1866.00;1256.34
1868.00;1237.12
1870.00;1241.11
1872.00;1251.67
1874.00;1244.97
1876.00;1238.95
1878.00;1245.76
1880.00;1228.88
1882.00;1229.25
1884.00;1230.35
1886.00;1235.72
1888.00;1223.52
1890.00;1231.84
1892.00;1224.92
1894.00;1216.86
1896.00;1226.07
1898.00;1218.13
1900.00;1218.65
1902.00;1221.39
1904.00;1221.07
1906.00;1209.99
1908.00;1215.48
1910.00;1217.79
1912.00;1206.16
1914.00;1198.36
1916.00;1196.84
1918.00;1194.41
1920.00;1195.08
1922.00;1196.57
1924.00;1213.80
1926.00;1204.30
1928.00;1192.69
1930.00;1188.28
1932.00;1199.46
1934.00;1191.53
1936.00;1196.01
1938.00;1183.36
1940.00;1188.47
1942.00;1185.25
1944.00;1173.63
1946.00;1171.79
1948.00;1182.69
1950.00;1191.21
1952.00;1181.01
1954.00;1173.98
1956.00;1178.31
1958.00;1176.60
1960.00;1170.06
1962.00;1166.58
1964.00;1165.90
1966.00;1164.34
1968.00;1157.35
1970.00;1177.52
1972.00;1172.61
1974.00;1162.98
1976.00;1150.58
1978.00;1156.33
1980.00;1150.77
1982.00;1150.85
1984.00;1140.71
1986.00;1149.02
1988.00;1149.81
1990.00;1139.51
1992.00;1149.95
1994.00;1139.30
1996.00;1136.66
1998.00;1138.54
2000.00;1137.54
2002.00;1140.20
2004.00;1144.19
2006.00;1138.56
2008.00;1137.89
2010.00;1130.42
2012.00;1129.06
2014.00;1124.44
2016.00;1128.65
2018.00;1115.66
2020.00;1132.13
2022.00;1118.34
2024.00;1138.77
2026.00;1129.90
2028.00;1116.72
2030.00;1109.58
2032.00;1117.48
2034.00;1109.66
2036.00;1122.19
2038.00;1119.87
2040.00;1123.58
2042.00;1114.49
2044.00;1099.30
2046.00;1108.96
2048.00;1100.83
2050.00;1097.29
2052.00;1106.27
2054.00;1096.23
2056.00;1093.42
2058.00;1104.78
2060.00;1106.42
2062.00;1094.51
2064.00;1090.58
2066.00;1089.95
2068.00;1080.67
2070.00;1097.08
2072.00;1091.63
2074.00;1085.41
2076.00;1092.27
2078.00;1083.79
2080.00;1083.63
2082.00;1083.46
2084.00;1064.43
2086.00;1077.83
2088.00;1077.90
2090.00;1074.24
2092.00;1079.32
2094.00;1066.59
2096.00;1083.00
2098.00;1063.65
2100.00;1061.24
2102.00;1066.62
2104.00;1070.94
2106.00;1060.19
2108.00;1052.68
2110.00;1048.18
2112.00;1057.30
2114.00;1052.11
2116.00;1047.32
2118.00;1053.84
2120.00;1037.63
2122.00;1057.44
2124.00;1046.22
2126.00;1059.40
2128.00;1039.19
2130.00;1044.79
2132.00;1046.50
2134.00;1044.95
2136.00;1027.74
2138.00;1033.86
2140.00;1032.67
2142.00;1034.77
2144.00;1022.96
2146.00;1025.85
2148.00;1031.48
2150.00;1024.90
2152.00;1031.76
2154.00;1023.17
2156.00;1014.65
2158.00;1021.79
2160.00;1027.44
2162.00;1024.43
2164.00;1022.98
2166.00;1018.14
2168.00;1026.11
2170.00;1017.17
2172.00;1031.70
2174.00;1009.96
2176.00;1015.17
2178.00;1004.80
2180.00;1013.09
2182.00;1000.75
2184.00;1020.00
2186.00;1012.56
2188.00;996.88
2190.00;1014.69
2192.00;1009.32
2194.00;993.42
2196.00;995.81
2198.00;1018.44
2200.00;1004.55
2202.00;1013.65
2204.00;996.65
2206.00;985.23
2208.00;1003.30
2210.00;1002.01
2212.00;993.40
2214.00;1005.14
2216.00;1017.84
2218.00;998.27
2220.00;1006.76
2222.00;1006.59
2224.00;995.33
2226.00;997.14
2228.00;987.78
2230.00;978.66
2232.00;968.06
2234.00;953.80
2236.00;963.69
2238.00;986.15
2240.00;967.63
2242.00;973.42
2244.00;961.62
2246.00;958.16
2248.00;974.06
2250.00;961.93
2252.00;982.10
2254.00;959.03
2256.00;947.60
2258.00;956.57
2260.00;943.42
2262.00;959.09
2264.00;942.96
2266.00;953.58
2268.00;955.41
2270.00;954.51
2272.00;945.70
2274.00;969.09
2276.00;934.87
2278.00;970.59
2280.00;958.11
2282.00;954.40
2284.00;955.49
2286.00;934.99
2288.00;951.90
2290.00;929.50
2292.00;944.37
2294.00;942.70
2296.00;932.39
2298.00;944.70
2300.00;921.68
[ANALYSIS RESULT]
Analysis_Type;None
