AP Cora 5001
Software_Version;1.4.1
[SAMPLE]
Sample_Name;Bov_denat2_after_1
Method;
[PARAMETERS]
Instrument_Type;Cora 5001
Instrument_SN;99119713
Last_SST;2/13/2024 2:05:45 PM +00:00
User_Name;labmanager
Measurement_Started;2/13/2024 5:51:15 PM
Measurement_Finished;2/13/2024 5:52:16 PM
Measurement_Saved;2/13/2024 5:52:16 PM
Wavelength;785
Laser_Power;30
Auto_Exposure;False
Exposure_Time;10000
Averaged_Spectra;3
Probe_Type;Regular Probe (785 nm)
Probe_SN;99101107
Dark_Background;True
User_Background_Spectrum;
Spike_Removal;True
Baseline_Correction;False
Smoothing;False
Normalization;None
[SPECTRUM QUALITY]
Quality_Saturation;False
Quality_SBR;NaN
Quality_Temperature;False
[SPECTRUM]
100.00;7690.82
102.00;7595.43
104.00;7475.08
106.00;7329.52
108.00;7158.08
110.00;6976.34
112.00;6790.88
114.00;6569.97
116.00;6338.88
118.00;6097.84
120.00;5885.37
122.00;5656.22
124.00;5454.09
126.00;5245.95
128.00;5058.57
130.00;4894.28
132.00;4745.79
134.00;4601.02
136.00;4479.18
138.00;4372.09
140.00;4262.37
142.00;4173.08
144.00;4104.35
146.00;4044.64
148.00;3989.81
150.00;3936.10
152.00;3895.62
154.00;3857.89
156.00;3827.13
158.00;3814.50
160.00;3800.01
162.00;3791.00
164.00;3775.36
166.00;3762.61
168.00;3749.88
170.00;3746.80
172.00;3741.47
174.00;3723.96
176.00;3711.13
178.00;3698.13
180.00;3688.46
182.00;3678.37
184.00;3666.01
186.00;3665.93
188.00;3655.03
190.00;3640.17
192.00;3634.83
194.00;3626.65
196.00;3615.69
198.00;3596.91
200.00;3586.13
202.00;3593.59
204.00;3602.14
206.00;3602.22
208.00;3599.84
210.00;3604.27
212.00;3599.21
214.00;3594.28
216.00;3594.32
218.00;3586.04
220.00;3584.71
222.00;3584.15
224.00;3574.13
226.00;3569.66
228.00;3565.93
230.00;3560.85
232.00;3562.07
234.00;3558.40
236.00;3554.33
238.00;3561.95
240.00;3565.55
242.00;3565.55
244.00;3555.52
246.00;3560.50
248.00;3569.73
250.00;3575.99
252.00;3572.89
254.00;3567.65
256.00;3567.62
258.00;3578.41
260.00;3582.61
262.00;3586.02
264.00;3586.15
266.00;3582.20
268.00;3589.40
270.00;3584.32
272.00;3583.99
274.00;3582.44
276.00;3574.79
278.00;3573.84
280.00;3578.49
282.00;3584.10
284.00;3572.16
286.00;3569.53
288.00;3573.05
290.00;3559.28
292.00;3556.89
294.00;3557.97
296.00;3552.09
298.00;3547.06
300.00;3540.59
302.00;3535.13
304.00;3530.53
306.00;3529.00
308.00;3524.21
310.00;3521.38
312.00;3517.39
314.00;3511.07
316.00;3513.90
318.00;3516.64
320.00;3517.71
322.00;3508.06
324.00;3507.41
326.00;3504.22
328.00;3505.53
330.00;3511.94
332.00;3506.31
334.00;3501.22
336.00;3496.98
338.00;3499.03
340.00;3499.20
342.00;3499.76
344.00;3496.80
346.00;3488.56
348.00;3483.20
350.00;3480.24
352.00;3477.88
354.00;3475.13
356.00;3479.07
358.00;3482.79
360.00;3471.99
362.00;3462.76
364.00;3464.58
366.00;3462.66
368.00;3459.10
370.00;3458.93
372.00;3454.48
374.00;3445.02
376.00;3446.98
378.00;3454.72
380.00;3453.71
382.00;3451.16
384.00;3453.25
386.00;3458.47
388.00;3458.76
390.00;3449.60
392.00;3454.37
394.00;3447.45
396.00;3439.13
398.00;3446.89
400.00;3444.96
402.00;3447.70
404.00;3451.53
406.00;3456.23
408.00;3463.46
410.00;3468.10
412.00;3481.96
414.00;3485.32
416.00;3485.55
418.00;3497.95
420.00;3499.38
422.00;3504.48
424.00;3516.01
426.00;3520.34
428.00;3524.91
430.00;3530.90
432.00;3529.64
434.00;3536.27
436.00;3531.69
438.00;3530.61
440.00;3537.73
442.00;3528.30
444.00;3521.04
446.00;3510.66
448.00;3505.86
450.00;3497.98
452.00;3487.86
454.00;3482.41
456.00;3470.07
458.00;3466.06
460.00;3460.76
462.00;3451.37
464.00;3448.83
466.00;3439.38
468.00;3427.43
470.00;3419.13
472.00;3409.73
474.00;3396.45
476.00;3387.36
478.00;3381.92
480.00;3368.63
482.00;3366.95
484.00;3353.51
486.00;3360.04
488.00;3366.98
490.00;3369.14
492.00;3364.89
494.00;3360.19
496.00;3363.32
498.00;3355.68
500.00;3342.54
502.00;3334.62
504.00;3342.74
506.00;3343.72
508.00;3345.22
510.00;3336.54
512.00;3342.88
514.00;3343.63
516.00;3343.60
518.00;3352.30
520.00;3353.50
522.00;3359.41
524.00;3356.91
526.00;3353.93
528.00;3351.41
530.00;3351.27
532.00;3356.37
534.00;3359.43
536.00;3347.01
538.00;3346.99
540.00;3351.82
542.00;3345.94
544.00;3344.80
546.00;3349.57
548.00;3349.63
550.00;3350.37
552.00;3340.61
554.00;3351.91
556.00;3361.97
558.00;3353.91
560.00;3356.24
562.00;3354.26
564.00;3354.58
566.00;3368.71
568.00;3370.30
570.00;3367.57
572.00;3375.23
574.00;3383.03
576.00;3391.46
578.00;3405.35
580.00;3405.79
582.00;3403.08
584.00;3403.24
586.00;3401.09
588.00;3401.58
590.00;3398.95
592.00;3403.13
594.00;3406.62
596.00;3393.67
598.00;3379.79
600.00;3358.30
602.00;3350.15
604.00;3332.62
606.00;3336.06
608.00;3327.31
610.00;3315.30
612.00;3311.92
614.00;3310.98
616.00;3313.84
618.00;3305.00
620.00;3302.20
622.00;3282.93
624.00;3275.13
626.00;3267.76
628.00;3258.91
630.00;3240.80
632.00;3240.86
634.00;3236.93
636.00;3237.37
638.00;3229.45
640.00;3225.69
642.00;3218.85
644.00;3207.99
646.00;3201.00
648.00;3194.07
650.00;3195.97
652.00;3203.26
654.00;3204.56
656.00;3205.47
658.00;3201.63
660.00;3186.95
662.00;3186.73
664.00;3181.96
666.00;3177.73
668.00;3172.69
670.00;3168.95
672.00;3169.50
674.00;3172.84
676.00;3166.01
678.00;3150.05
680.00;3157.69
682.00;3152.62
684.00;3156.87
686.00;3156.39
688.00;3158.05
690.00;3153.42
692.00;3154.39
694.00;3152.31
696.00;3153.62
698.00;3144.82
700.00;3142.41
702.00;3139.56
704.00;3130.39
706.00;3117.43
708.00;3128.96
710.00;3126.74
712.00;3115.71
714.00;3115.91
716.00;3114.36
718.00;3124.56
720.00;3121.72
722.00;3117.43
724.00;3113.52
726.00;3107.54
728.00;3112.46
730.00;3110.29
732.00;3111.34
734.00;3100.83
736.00;3097.59
738.00;3098.43
740.00;3102.00
742.00;3092.13
744.00;3081.71
746.00;3081.01
748.00;3069.25
750.00;3062.82
752.00;3063.22
754.00;3064.65
756.00;3068.24
758.00;3071.21
760.00;3075.68
762.00;3074.28
764.00;3062.19
766.00;3053.08
768.00;3045.91
770.00;3032.43
772.00;3031.46
774.00;3026.04
776.00;3027.31
778.00;3023.18
780.00;3022.68
782.00;3018.73
784.00;3019.78
786.00;3018.11
788.00;3020.20
790.00;3010.88
792.00;3009.62
794.00;3017.83
796.00;3013.09
798.00;3007.73
800.00;3005.01
802.00;3003.79
804.00;3008.72
806.00;3006.41
808.00;3017.53
810.00;3016.69
812.00;3020.68
814.00;3024.37
816.00;3025.63
818.00;3015.25
820.00;3000.86
822.00;2998.52
824.00;3000.96
826.00;2994.06
828.00;2994.18
830.00;3011.92
832.00;3003.65
834.00;3003.58
836.00;3003.56
838.00;2989.09
840.00;2973.19
842.00;2980.83
844.00;2996.82
846.00;3005.61
848.00;3012.63
850.00;3012.20
852.00;2991.71
854.00;2984.94
856.00;2994.00
858.00;2985.08
860.00;2987.44
862.00;2982.44
864.00;2982.11
866.00;2983.53
868.00;2986.40
870.00;2987.94
872.00;2986.75
874.00;2985.65
876.00;2998.29
878.00;2987.96
880.00;2987.75
882.00;2984.49
884.00;2977.05
886.00;2972.38
888.00;2977.02
890.00;2979.03
892.00;2969.25
894.00;2961.63
896.00;2959.10
898.00;2964.10
900.00;2961.48
902.00;2962.52
904.00;2956.01
906.00;2947.91
908.00;2938.70
910.00;2949.19
912.00;2960.95
914.00;2966.81
916.00;2961.17
918.00;2966.51
920.00;2972.73
922.00;2975.54
924.00;2975.64
926.00;2972.24
928.00;2977.80
930.00;2981.65
932.00;2982.21
934.00;2990.25
936.00;3007.57
938.00;3027.90
940.00;3061.06
942.00;3095.46
944.00;3132.84
946.00;3187.49
948.00;3255.92
950.00;3352.11
952.00;3461.26
954.00;3569.11
956.00;3686.22
958.00;3788.51
960.00;3848.13
962.00;3847.85
964.00;3785.36
966.00;3671.13
968.00;3536.09
970.00;3408.68
972.00;3283.99
974.00;3178.13
976.00;3095.53
978.00;3030.81
980.00;2982.19
982.00;2946.61
984.00;2920.31
986.00;2908.57
988.00;2900.75
990.00;2895.30
992.00;2883.45
994.00;2878.88
996.00;2875.84
998.00;2865.26
1000.00;2886.77
1002.00;2881.44
1004.00;2883.61
1006.00;2881.53
1008.00;2869.53
1010.00;2866.83
1012.00;2868.76
1014.00;2867.80
1016.00;2867.72
1018.00;2880.41
1020.00;2876.24
1022.00;2884.43
1024.00;2884.95
1026.00;2877.81
1028.00;2881.96
1030.00;2873.01
1032.00;2872.10
1034.00;2866.21
1036.00;2864.58
1038.00;2867.67
1040.00;2874.12
1042.00;2872.48
1044.00;2872.40
1046.00;2866.80
1048.00;2877.50
1050.00;2878.29
1052.00;2871.36
1054.00;2871.61
1056.00;2871.03
1058.00;2875.36
1060.00;2892.36
1062.00;2905.96
1064.00;2908.67
1066.00;2924.31
1068.00;2938.83
1070.00;2941.31
1072.00;2944.90
1074.00;2925.72
1076.00;2915.99
1078.00;2892.79
1080.00;2867.76
1082.00;2844.62
1084.00;2827.99
1086.00;2807.84
1088.00;2786.33
1090.00;2776.29
1092.00;2761.88
1094.00;2756.86
1096.00;2743.27
1098.00;2735.69
1100.00;2721.32
1102.00;2725.80
1104.00;2730.79
1106.00;2726.49
1108.00;2717.43
1110.00;2717.68
1112.00;2697.55
1114.00;2699.59
1116.00;2682.80
1118.00;2672.10
1120.00;2663.24
1122.00;2664.88
1124.00;2663.25
1126.00;2662.72
1128.00;2656.03
1130.00;2656.88
1132.00;2645.81
1134.00;2642.67
1136.00;2635.96
1138.00;2631.14
1140.00;2632.22
1142.00;2623.62
1144.00;2621.55
1146.00;2626.46
1148.00;2621.69
1150.00;2625.51
1152.00;2627.07
1154.00;2615.38
1156.00;2614.57
1158.00;2613.14
1160.00;2623.76
1162.00;2619.88
1164.00;2606.56
1166.00;2608.87
1168.00;2604.73
1170.00;2605.79
1172.00;2601.51
1174.00;2603.74
1176.00;2609.47
1178.00;2604.43
1180.00;2598.36
1182.00;2593.84
1184.00;2596.01
1186.00;2593.58
1188.00;2585.77
1190.00;2589.78
1192.00;2586.30
1194.00;2587.61
1196.00;2598.07
1198.00;2599.26
1200.00;2595.77
1202.00;2600.57
1204.00;2606.15
1206.00;2613.81
1208.00;2615.79
1210.00;2607.47
1212.00;2617.71
1214.00;2612.99
1216.00;2616.01
1218.00;2621.57
1220.00;2610.84
1222.00;2616.40
1224.00;2619.88
1226.00;2610.77
1228.00;2619.41
1230.00;2619.99
1232.00;2626.68
1234.00;2628.95
1236.00;2617.09
1238.00;2617.64
1240.00;2632.52
1242.00;2631.75
1244.00;2621.81
1246.00;2614.05
1248.00;2619.23
1250.00;2614.44
1252.00;2595.99
1254.00;2592.11
1256.00;2589.53
1258.00;2591.21
1260.00;2587.47
1262.00;2591.05
1264.00;2583.88
1266.00;2583.87
1268.00;2576.30
1270.00;2577.31
1272.00;2573.15
1274.00;2562.89
1276.00;2564.97
1278.00;2557.46
1280.00;2542.05
1282.00;2545.30
1284.00;2526.93
1286.00;2526.98
1288.00;2527.41
1290.00;2524.29
1292.00;2512.00
1294.00;2513.51
1296.00;2509.24
1298.00;2499.91
1300.00;2503.23
1302.00;2501.73
1304.00;2503.99
1306.00;2510.12
1308.00;2509.48
1310.00;2512.27
1312.00;2511.94
1314.00;2508.73
1316.00;2507.98
1318.00;2513.87
1320.00;2505.19
1322.00;2502.53
1324.00;2500.12
1326.00;2493.77
1328.00;2488.42
1330.00;2492.08
1332.00;2493.80
1334.00;2483.12
1336.00;2483.88
1338.00;2490.18
1340.00;2476.89
1342.00;2478.92
1344.00;2484.49
1346.00;2479.27
1348.00;2471.90
1350.00;2469.83
1352.00;2466.07
1354.00;2461.88
1356.00;2456.76
1358.00;2455.89
1360.00;2459.47
1362.00;2439.07
1364.00;2435.14
1366.00;2444.71
1368.00;2439.34
1370.00;2439.55
1372.00;2430.90
1374.00;2439.56
1376.00;2437.66
1378.00;2429.32
1380.00;2435.47
1382.00;2434.32
1384.00;2437.72
1386.00;2428.50
1388.00;2432.80
1390.00;2423.78
1392.00;2427.16
1394.00;2435.56
1396.00;2437.26
1398.00;2429.88
1400.00;2425.67
1402.00;2428.46
1404.00;2430.81
1406.00;2419.22
1408.00;2421.69
1410.00;2423.72
1412.00;2427.23
1414.00;2426.34
1416.00;2422.69
1418.00;2420.44
1420.00;2425.26
1422.00;2425.25
1424.00;2425.14
1426.00;2412.25
1428.00;2413.15
1430.00;2419.05
1432.00;2417.98
1434.00;2422.26
1436.00;2433.58
1438.00;2438.38
1440.00;2438.97
1442.00;2441.82
1444.00;2468.29
1446.00;2460.62
1448.00;2459.51
1450.00;2467.71
1452.00;2453.34
1454.00;2455.67
1456.00;2435.22
1458.00;2430.36
1460.00;2432.63
1462.00;2427.37
1464.00;2410.64
1466.00;2394.33
1468.00;2384.41
1470.00;2379.51
1472.00;2374.92
1474.00;2359.15
1476.00;2349.51
1478.00;2339.87
1480.00;2326.05
1482.00;2315.23
1484.00;2310.52
1486.00;2313.39
1488.00;2297.72
1490.00;2288.31
1492.00;2290.96
1494.00;2283.82
1496.00;2284.43
1498.00;2285.88
1500.00;2275.48
1502.00;2272.21
1504.00;2262.35
1506.00;2263.26
1508.00;2252.08
1510.00;2255.85
1512.00;2252.35
1514.00;2256.10
1516.00;2249.76
1518.00;2247.36
1520.00;2241.83
1522.00;2233.69
1524.00;2245.43
1526.00;2237.71
1528.00;2232.84
1530.00;2243.26
1532.00;2228.38
1534.00;2236.71
1536.00;2234.61
1538.00;2222.02
1540.00;2219.93
1542.00;2225.08
1544.00;2222.26
1546.00;2223.44
1548.00;2215.14
1550.00;2210.69
1552.00;2215.15
1554.00;2205.88
1556.00;2198.07
1558.00;2197.44
1560.00;2193.61
1562.00;2193.75
1564.00;2190.35
1566.00;2185.73
1568.00;2184.34
1570.00;2186.51
1572.00;2187.46
1574.00;2177.81
1576.00;2181.89
1578.00;2181.62
1580.00;2172.30
1582.00;2173.69
1584.00;2183.46
1586.00;2187.03
1588.00;2181.22
1590.00;2183.29
1592.00;2174.69
1594.00;2173.84
1596.00;2190.92
1598.00;2187.47
1600.00;2181.73
1602.00;2186.47
1604.00;2167.18
1606.00;2189.71
1608.00;2177.19
1610.00;2170.50
1612.00;2167.79
1614.00;2164.91
1616.00;2162.05
1618.00;2165.66
1620.00;2165.90
1622.00;2166.67
1624.00;2169.62
1626.00;2169.33
1628.00;2169.10
1630.00;2166.82
1632.00;2164.42
1634.00;2172.67
1636.00;2167.59
1638.00;2177.70
1640.00;2177.98
1642.00;2179.04
1644.00;2173.90
1646.00;2180.93
1648.00;2172.19
1650.00;2173.64
1652.00;2165.19
1654.00;2162.63
1656.00;2161.03
1658.00;2160.25
1660.00;2170.29
1662.00;2179.73
1664.00;2160.36
1666.00;2172.08
1668.00;2160.02
1670.00;2160.24
1672.00;2171.82
1674.00;2168.61
1676.00;2161.61
1678.00;2160.16
1680.00;2159.52
1682.00;2153.40
1684.00;2143.15
1686.00;2147.10
1688.00;2139.13
1690.00;2124.99
1692.00;2117.89
1694.00;2112.99
1696.00;2111.75
1698.00;2098.51
1700.00;2100.40
1702.00;2077.28
1704.00;2075.04
1706.00;2061.58
1708.00;2052.26
1710.00;2044.74
1712.00;2037.59
1714.00;2021.38
1716.00;2017.15
1718.00;2020.39
1720.00;2011.65
1722.00;1996.72
1724.00;2000.39
1726.00;1986.92
1728.00;1986.16
1730.00;1984.40
1732.00;1978.58
1734.00;1974.95
1736.00;1975.17
1738.00;1965.19
1740.00;1969.54
1742.00;1949.26
1744.00;1949.93
1746.00;1955.62
1748.00;1947.93
1750.00;1948.19
1752.00;1960.12
1754.00;1949.37
1756.00;1937.24
1758.00;1940.79
1760.00;1923.54
1762.00;1928.54
1764.00;1930.09
1766.00;1919.31
1768.00;1930.39
1770.00;1920.85
1772.00;1908.99
1774.00;1909.35
1776.00;1919.85
1778.00;1919.71
1780.00;1906.67
1782.00;1909.54
1784.00;1897.16
1786.00;1901.88
1788.00;1901.93
1790.00;1888.79
1792.00;1895.31
1794.00;1891.56
1796.00;1883.21
1798.00;1888.22
1800.00;1883.50
1802.00;1887.03
1804.00;1885.59
1806.00;1888.46
1808.00;1889.76
1810.00;1880.33
1812.00;1871.74
1814.00;1877.25
1816.00;1883.62
1818.00;1870.46
1820.00;1867.42
1822.00;1867.11
1824.00;1848.45
1826.00;1863.82
1828.00;1849.22
1830.00;1843.13
1832.00;1852.84
1834.00;1843.15
1836.00;1843.87
1838.00;1841.39
1840.00;1828.33
1842.00;1835.18
1844.00;1829.41
1846.00;1835.66
1848.00;1840.41
1850.00;1828.48
1852.00;1832.91
1854.00;1813.90
1856.00;1813.58
1858.00;1820.69
1860.00;1816.74
1862.00;1824.13
1864.00;1809.81
1866.00;1807.52
1868.00;1779.32
1870.00;1788.23
1872.00;1791.42
1874.00;1795.11
1876.00;1774.65
1878.00;1771.59
1880.00;1777.27
1882.00;1786.16
1884.00;1774.24
1886.00;1775.69
1888.00;1775.60
1890.00;1764.78
1892.00;1764.76
1894.00;1766.82
1896.00;1765.57
1898.00;1762.64
1900.00;1759.87
1902.00;1770.80
1904.00;1746.02
1906.00;1752.02
1908.00;1745.32
1910.00;1749.47
1912.00;1746.82
1914.00;1742.92
1916.00;1745.25
1918.00;1740.22
1920.00;1734.09
1922.00;1739.79
1924.00;1723.89
1926.00;1741.17
1928.00;1733.17
1930.00;1726.79
1932.00;1719.92
1934.00;1719.21
1936.00;1711.98
1938.00;1700.79
1940.00;1715.74
1942.00;1711.12
1944.00;1720.28
1946.00;1711.40
1948.00;1706.43
1950.00;1700.74
1952.00;1718.23
1954.00;1692.16
1956.00;1707.21
1958.00;1696.23
1960.00;1697.77
1962.00;1693.33
1964.00;1690.88
1966.00;1685.38
1968.00;1666.74
1970.00;1685.15
1972.00;1671.19
1974.00;1682.97
1976.00;1674.50
1978.00;1660.95
1980.00;1645.04
1982.00;1650.06
1984.00;1657.50
1986.00;1646.45
1988.00;1634.13
1990.00;1657.64
1992.00;1640.77
1994.00;1655.41
1996.00;1625.66
1998.00;1634.05
2000.00;1636.61
2002.00;1640.42
2004.00;1645.20
2006.00;1639.64
2008.00;1633.29
2010.00;1647.30
2012.00;1629.14
2014.00;1627.63
2016.00;1623.51
2018.00;1638.10
2020.00;1635.31
2022.00;1618.27
2024.00;1627.58
2026.00;1605.73
2028.00;1616.66
2030.00;1604.80
2032.00;1615.18
2034.00;1604.56
2036.00;1611.35
2038.00;1610.22
2040.00;1613.02
2042.00;1595.66
2044.00;1594.46
2046.00;1598.91
2048.00;1575.22
2050.00;1588.59
2052.00;1582.64
2054.00;1586.83
2056.00;1584.81
2058.00;1601.82
2060.00;1573.49
2062.00;1585.46
2064.00;1582.42
2066.00;1584.26
2068.00;1585.99
2070.00;1563.74
2072.00;1589.89
2074.00;1575.64
2076.00;1554.58
2078.00;1569.21
2080.00;1570.35
2082.00;1567.58
2084.00;1564.01
2086.00;1556.16
2088.00;1548.58
2090.00;1562.82
2092.00;1547.38
2094.00;1536.38
2096.00;1559.34
2098.00;1557.20
2100.00;1555.02
2102.00;1553.76
2104.00;1539.80
2106.00;1541.74
2108.00;1533.18
2110.00;1531.61
2112.00;1535.75
2114.00;1513.70
2116.00;1532.99
2118.00;1513.82
2120.00;1538.01
2122.00;1527.43
2124.00;1515.26
2126.00;1530.29
2128.00;1513.63
2130.00;1511.80
2132.00;1505.41
2134.00;1499.63
2136.00;1493.04
2138.00;1493.87
2140.00;1506.17
2142.00;1502.76
2144.00;1493.25
2146.00;1503.97
2148.00;1488.81
2150.00;1490.28
2152.00;1502.54
2154.00;1484.74
2156.00;1484.32
2158.00;1476.93
2160.00;1480.78
2162.00;1466.29
2164.00;1492.05
2166.00;1487.86
2168.00;1505.48
2170.00;1484.13
2172.00;1477.09
2174.00;1454.15
2176.00;1474.42
2178.00;1466.52
2180.00;1474.94
2182.00;1477.07
2184.00;1461.12
2186.00;1454.18
2188.00;1457.04
2190.00;1468.68
2192.00;1460.50
2194.00;1441.70
2196.00;1463.01
2198.00;1455.79
2200.00;1472.25
2202.00;1465.13
2204.00;1464.14
2206.00;1455.48
2208.00;1437.46
2210.00;1437.69
2212.00;1439.10
2214.00;1457.17
2216.00;1467.74
2218.00;1465.02
2220.00;1447.55
2222.00;1451.75
2224.00;1421.63
2226.00;1442.99
2228.00;1427.57
2230.00;1453.90
2232.00;1411.71
2234.00;1411.01
2236.00;1414.61
2238.00;1408.87
2240.00;1412.83
2242.00;1380.89
2244.00;1402.42
2246.00;1397.36
2248.00;1401.97
2250.00;1421.77
2252.00;1398.64
2254.00;1389.79
2256.00;1397.35
2258.00;1378.83
2260.00;1389.93
2262.00;1406.71
2264.00;1377.33
2266.00;1381.22
2268.00;1385.49
2270.00;1395.33
2272.00;1389.68
2274.00;1378.93
2276.00;1386.33
2278.00;1370.36
2280.00;1381.91
2282.00;1378.46
2284.00;1399.99
2286.00;1372.87
2288.00;1371.18
2290.00;1360.80
2292.00;1382.97
2294.00;1365.95
2296.00;1364.78
2298.00;1387.55
2300.00;1381.08
[ANALYSIS RESULT]
Analysis_Type;None
