AP Cora 5001
Software_Version;1.4.1
[SAMPLE]
Sample_Name;Sample1_plexiform
Method;
[PARAMETERS]
Instrument_Type;Cora 5001
Instrument_SN;99119713
Last_SST;3/7/2024 1:00:25 PM +00:00
User_Name;labmanager
Measurement_Started;3/7/2024 2:48:35 PM
Measurement_Finished;3/7/2024 2:49:36 PM
Measurement_Saved;3/7/2024 2:49:36 PM
Wavelength;785
Laser_Power;30
Auto_Exposure;False
Exposure_Time;10000
Averaged_Spectra;3
Probe_Type;Regular Probe (785 nm)
Probe_SN;99101107
Dark_Background;True
User_Background_Spectrum;
Spike_Removal;True
Baseline_Correction;False
Smoothing;False
Normalization;None
[SPECTRUM QUALITY]
Quality_Saturation;False
Quality_SBR;NaN
Quality_Temperature;False
[SPECTRUM]
100.00;9155.34
102.00;8989.62
104.00;8786.41
106.00;8546.92
108.00;8246.92
110.00;7942.53
112.00;7588.78
114.00;7226.18
116.00;6832.74
118.00;6437.23
120.00;6046.99
122.00;5645.35
124.00;5270.66
126.00;4937.75
128.00;4624.86
130.00;4324.43
132.00;4053.67
134.00;3803.19
136.00;3578.03
138.00;3381.20
140.00;3193.96
142.00;3032.55
144.00;2887.32
146.00;2762.05
148.00;2651.29
150.00;2555.99
152.00;2484.02
154.00;2414.74
156.00;2359.51
158.00;2314.21
160.00;2277.20
162.00;2234.33
164.00;2212.05
166.00;2192.66
168.00;2169.88
170.00;2152.76
172.00;2139.44
174.00;2126.44
176.00;2113.46
178.00;2101.37
180.00;2088.69
182.00;2081.08
184.00;2070.22
186.00;2061.86
188.00;2047.87
190.00;2036.49
192.00;2034.84
194.00;2028.45
196.00;2013.79
198.00;2013.68
200.00;2010.32
202.00;2003.18
204.00;2003.19
206.00;1995.39
208.00;2000.58
210.00;2002.79
212.00;1997.74
214.00;2001.47
216.00;2003.02
218.00;2000.28
220.00;1999.85
222.00;1997.77
224.00;1993.96
226.00;1996.82
228.00;1994.56
230.00;1984.34
232.00;1991.03
234.00;1993.94
236.00;1998.92
238.00;2002.22
240.00;2002.31
242.00;2003.51
244.00;1998.75
246.00;1997.39
248.00;2002.57
250.00;2010.33
252.00;2010.69
254.00;2006.89
256.00;2012.74
258.00;2014.81
260.00;2015.86
262.00;2017.79
264.00;2018.17
266.00;2017.40
268.00;2021.16
270.00;2024.60
272.00;2019.35
274.00;2020.20
276.00;2025.19
278.00;2025.34
280.00;2026.08
282.00;2022.65
284.00;2024.11
286.00;2028.12
288.00;2024.95
290.00;2021.84
292.00;2022.94
294.00;2024.49
296.00;2027.45
298.00;2023.65
300.00;2018.03
302.00;2026.07
304.00;2029.97
306.00;2029.89
308.00;2029.05
310.00;2014.98
312.00;2017.41
314.00;2023.61
316.00;2020.84
318.00;2025.12
320.00;2024.71
322.00;2021.57
324.00;2019.83
326.00;2020.95
328.00;2014.14
330.00;2019.83
332.00;2030.49
334.00;2024.54
336.00;2022.00
338.00;2021.47
340.00;2017.95
342.00;2019.30
344.00;2024.79
346.00;2026.82
348.00;2024.01
350.00;2021.81
352.00;2018.80
354.00;2018.75
356.00;2021.03
358.00;2021.35
360.00;2013.35
362.00;2006.75
364.00;2010.17
366.00;2006.50
368.00;2007.44
370.00;2015.31
372.00;2013.15
374.00;2006.51
376.00;2015.17
378.00;2016.11
380.00;2019.49
382.00;2033.71
384.00;2026.46
386.00;2025.57
388.00;2025.15
390.00;2019.57
392.00;2031.20
394.00;2025.52
396.00;2027.03
398.00;2020.74
400.00;2024.28
402.00;2028.78
404.00;2033.57
406.00;2041.15
408.00;2051.68
410.00;2054.26
412.00;2059.04
414.00;2064.22
416.00;2057.02
418.00;2055.42
420.00;2062.47
422.00;2067.82
424.00;2077.24
426.00;2091.79
428.00;2097.04
430.00;2091.66
432.00;2096.85
434.00;2089.83
436.00;2092.40
438.00;2099.43
440.00;2102.75
442.00;2096.76
444.00;2090.54
446.00;2087.49
448.00;2095.28
450.00;2084.79
452.00;2082.87
454.00;2072.12
456.00;2069.59
458.00;2068.96
460.00;2063.65
462.00;2065.00
464.00;2070.68
466.00;2057.31
468.00;2056.33
470.00;2053.92
472.00;2046.31
474.00;2039.51
476.00;2035.19
478.00;2024.90
480.00;2018.56
482.00;2020.12
484.00;2020.87
486.00;2020.92
488.00;2022.27
490.00;2023.77
492.00;2023.38
494.00;2030.66
496.00;2029.41
498.00;2034.36
500.00;2031.02
502.00;2020.48
504.00;2021.22
506.00;2022.04
508.00;2021.96
510.00;2021.71
512.00;2024.20
514.00;2020.64
516.00;2026.61
518.00;2033.80
520.00;2033.30
522.00;2040.65
524.00;2044.24
526.00;2047.04
528.00;2048.58
530.00;2043.55
532.00;2044.21
534.00;2040.83
536.00;2040.38
538.00;2035.83
540.00;2043.62
542.00;2039.89
544.00;2042.15
546.00;2051.05
548.00;2051.13
550.00;2048.90
552.00;2042.70
554.00;2049.88
556.00;2053.48
558.00;2058.05
560.00;2063.88
562.00;2069.04
564.00;2065.97
566.00;2071.33
568.00;2077.98
570.00;2074.71
572.00;2077.33
574.00;2082.37
576.00;2090.99
578.00;2095.88
580.00;2101.16
582.00;2105.98
584.00;2104.52
586.00;2102.42
588.00;2099.58
590.00;2099.31
592.00;2096.14
594.00;2096.21
596.00;2093.94
598.00;2088.19
600.00;2076.99
602.00;2071.74
604.00;2067.09
606.00;2064.19
608.00;2056.15
610.00;2059.21
612.00;2060.15
614.00;2057.20
616.00;2059.66
618.00;2057.66
620.00;2050.10
622.00;2044.88
624.00;2036.85
626.00;2035.70
628.00;2031.99
630.00;2028.36
632.00;2021.32
634.00;2021.56
636.00;2023.70
638.00;2019.32
640.00;2006.06
642.00;2011.12
644.00;2012.41
646.00;2001.69
648.00;1996.36
650.00;1999.21
652.00;2004.80
654.00;2010.90
656.00;2013.34
658.00;2009.98
660.00;2012.46
662.00;2011.98
664.00;2005.88
666.00;2004.70
668.00;2003.44
670.00;2006.46
672.00;2012.01
674.00;2011.97
676.00;2006.28
678.00;2005.19
680.00;1997.66
682.00;1997.29
684.00;2006.13
686.00;2002.05
688.00;2008.98
690.00;2004.23
692.00;1999.29
694.00;2007.41
696.00;2003.46
698.00;2005.12
700.00;2011.66
702.00;2000.53
704.00;1995.93
706.00;1997.71
708.00;1998.21
710.00;1995.02
712.00;1985.70
714.00;1991.78
716.00;1991.38
718.00;1996.95
720.00;1997.14
722.00;1991.60
724.00;1994.07
726.00;1996.54
728.00;1997.78
730.00;1995.63
732.00;1994.86
734.00;1990.42
736.00;1989.82
738.00;1985.33
740.00;1989.21
742.00;1989.21
744.00;1987.09
746.00;1979.95
748.00;1984.09
750.00;1981.50
752.00;1987.64
754.00;1990.49
756.00;1990.30
758.00;1984.80
760.00;1986.12
762.00;1984.45
764.00;1974.46
766.00;1971.43
768.00;1974.57
770.00;1973.23
772.00;1972.54
774.00;1970.81
776.00;1973.25
778.00;1962.81
780.00;1966.81
782.00;1966.12
784.00;1964.55
786.00;1973.67
788.00;1974.31
790.00;1967.91
792.00;1965.73
794.00;1969.45
796.00;1974.11
798.00;1966.20
800.00;1964.45
802.00;1965.07
804.00;1965.97
806.00;1970.52
808.00;1977.61
810.00;1980.74
812.00;1984.13
814.00;1983.80
816.00;1983.11
818.00;1978.71
820.00;1973.03
822.00;1965.92
824.00;1965.64
826.00;1959.83
828.00;1955.37
830.00;1962.29
832.00;1963.43
834.00;1969.64
836.00;1968.70
838.00;1966.11
840.00;1965.21
842.00;1963.55
844.00;1976.12
846.00;1987.18
848.00;2000.25
850.00;1991.98
852.00;1988.31
854.00;1986.95
856.00;1991.51
858.00;1982.75
860.00;1986.19
862.00;1987.40
864.00;1982.71
866.00;1975.39
868.00;1976.10
870.00;1978.31
872.00;1983.31
874.00;1984.69
876.00;1985.62
878.00;1984.07
880.00;1987.32
882.00;1978.24
884.00;1976.46
886.00;1973.82
888.00;1973.03
890.00;1974.73
892.00;1978.33
894.00;1968.63
896.00;1977.55
898.00;1972.79
900.00;1966.57
902.00;1960.62
904.00;1949.56
906.00;1955.30
908.00;1953.31
910.00;1954.73
912.00;1970.74
914.00;1974.49
916.00;1987.89
918.00;1988.23
920.00;1990.54
922.00;1996.00
924.00;1997.65
926.00;1992.57
928.00;1989.05
930.00;1998.02
932.00;2001.33
934.00;2014.75
936.00;2030.03
938.00;2057.55
940.00;2070.49
942.00;2096.62
944.00;2124.74
946.00;2161.30
948.00;2215.39
950.00;2288.01
952.00;2367.39
954.00;2447.75
956.00;2529.00
958.00;2573.35
960.00;2588.54
962.00;2578.24
964.00;2510.78
966.00;2416.58
968.00;2318.63
970.00;2221.93
972.00;2146.27
974.00;2089.78
976.00;2041.60
978.00;2003.94
980.00;1976.90
982.00;1953.85
984.00;1944.60
986.00;1938.71
988.00;1934.10
990.00;1933.38
992.00;1929.66
994.00;1924.10
996.00;1926.75
998.00;1933.43
1000.00;1934.14
1002.00;1951.64
1004.00;1946.64
1006.00;1941.83
1008.00;1942.11
1010.00;1926.68
1012.00;1925.72
1014.00;1924.21
1016.00;1929.92
1018.00;1939.22
1020.00;1937.11
1022.00;1936.36
1024.00;1936.35
1026.00;1944.56
1028.00;1937.85
1030.00;1944.75
1032.00;1942.24
1034.00;1941.09
1036.00;1942.46
1038.00;1946.69
1040.00;1939.27
1042.00;1935.14
1044.00;1942.11
1046.00;1952.05
1048.00;1944.70
1050.00;1937.66
1052.00;1938.67
1054.00;1941.49
1056.00;1943.46
1058.00;1952.41
1060.00;1952.81
1062.00;1955.99
1064.00;1972.46
1066.00;1985.29
1068.00;1984.06
1070.00;1988.39
1072.00;1994.18
1074.00;1984.60
1076.00;1986.74
1078.00;1969.42
1080.00;1940.61
1082.00;1927.78
1084.00;1917.59
1086.00;1911.84
1088.00;1906.23
1090.00;1903.53
1092.00;1895.00
1094.00;1886.62
1096.00;1875.15
1098.00;1871.45
1100.00;1868.46
1102.00;1864.35
1104.00;1861.54
1106.00;1858.89
1108.00;1855.77
1110.00;1850.19
1112.00;1841.67
1114.00;1840.56
1116.00;1833.78
1118.00;1828.81
1120.00;1825.36
1122.00;1822.19
1124.00;1825.10
1126.00;1826.57
1128.00;1832.40
1130.00;1830.21
1132.00;1819.07
1134.00;1824.27
1136.00;1825.11
1138.00;1813.48
1140.00;1807.03
1142.00;1810.85
1144.00;1806.79
1146.00;1806.84
1148.00;1800.25
1150.00;1798.70
1152.00;1801.88
1154.00;1801.58
1156.00;1810.57
1158.00;1806.18
1160.00;1806.45
1162.00;1814.37
1164.00;1799.91
1166.00;1804.10
1168.00;1801.87
1170.00;1806.34
1172.00;1808.40
1174.00;1809.59
1176.00;1807.91
1178.00;1804.13
1180.00;1805.16
1182.00;1795.84
1184.00;1794.69
1186.00;1790.07
1188.00;1791.17
1190.00;1792.02
1192.00;1787.92
1194.00;1794.15
1196.00;1800.15
1198.00;1794.11
1200.00;1796.04
1202.00;1798.66
1204.00;1791.53
1206.00;1791.97
1208.00;1799.93
1210.00;1796.04
1212.00;1798.50
1214.00;1800.00
1216.00;1789.50
1218.00;1785.23
1220.00;1785.45
1222.00;1778.43
1224.00;1788.99
1226.00;1785.48
1228.00;1794.26
1230.00;1806.07
1232.00;1808.69
1234.00;1812.29
1236.00;1815.88
1238.00;1813.99
1240.00;1820.95
1242.00;1826.62
1244.00;1825.70
1246.00;1821.45
1248.00;1820.05
1250.00;1808.38
1252.00;1815.32
1254.00;1812.66
1256.00;1805.49
1258.00;1800.14
1260.00;1795.74
1262.00;1802.35
1264.00;1803.30
1266.00;1811.97
1268.00;1811.10
1270.00;1802.96
1272.00;1802.49
1274.00;1799.47
1276.00;1798.92
1278.00;1792.47
1280.00;1794.56
1282.00;1783.10
1284.00;1782.17
1286.00;1775.68
1288.00;1770.14
1290.00;1758.08
1292.00;1761.85
1294.00;1759.43
1296.00;1758.43
1298.00;1746.43
1300.00;1752.33
1302.00;1752.41
1304.00;1756.95
1306.00;1753.07
1308.00;1758.40
1310.00;1759.09
1312.00;1754.57
1314.00;1749.32
1316.00;1742.53
1318.00;1750.20
1320.00;1743.35
1322.00;1743.88
1324.00;1747.33
1326.00;1744.67
1328.00;1747.50
1330.00;1736.16
1332.00;1740.05
1334.00;1733.83
1336.00;1743.89
1338.00;1734.61
1340.00;1734.53
1342.00;1730.41
1344.00;1738.22
1346.00;1737.49
1348.00;1736.49
1350.00;1730.65
1352.00;1719.95
1354.00;1720.46
1356.00;1722.37
1358.00;1718.69
1360.00;1721.11
1362.00;1717.22
1364.00;1709.43
1366.00;1706.43
1368.00;1716.14
1370.00;1712.64
1372.00;1703.28
1374.00;1723.08
1376.00;1715.09
1378.00;1715.49
1380.00;1719.94
1382.00;1723.39
1384.00;1721.14
1386.00;1713.97
1388.00;1710.39
1390.00;1716.60
1392.00;1713.56
1394.00;1717.24
1396.00;1720.13
1398.00;1705.31
1400.00;1716.60
1402.00;1707.81
1404.00;1703.08
1406.00;1695.32
1408.00;1706.17
1410.00;1699.61
1412.00;1693.56
1414.00;1701.69
1416.00;1694.91
1418.00;1705.27
1420.00;1701.54
1422.00;1696.10
1424.00;1700.17
1426.00;1706.81
1428.00;1696.98
1430.00;1702.94
1432.00;1701.07
1434.00;1707.35
1436.00;1699.42
1438.00;1717.86
1440.00;1716.67
1442.00;1706.28
1444.00;1720.04
1446.00;1722.97
1448.00;1728.09
1450.00;1731.97
1452.00;1719.84
1454.00;1722.67
1456.00;1720.42
1458.00;1715.14
1460.00;1710.47
1462.00;1711.70
1464.00;1705.43
1466.00;1689.88
1468.00;1687.82
1470.00;1678.01
1472.00;1672.76
1474.00;1669.85
1476.00;1664.62
1478.00;1647.16
1480.00;1643.55
1482.00;1640.65
1484.00;1633.36
1486.00;1630.13
1488.00;1623.12
1490.00;1617.73
1492.00;1625.85
1494.00;1612.51
1496.00;1606.41
1498.00;1608.92
1500.00;1603.80
1502.00;1605.84
1504.00;1594.32
1506.00;1597.76
1508.00;1597.82
1510.00;1595.78
1512.00;1587.65
1514.00;1595.73
1516.00;1600.31
1518.00;1595.15
1520.00;1593.52
1522.00;1591.12
1524.00;1584.17
1526.00;1592.94
1528.00;1581.66
1530.00;1582.40
1532.00;1578.98
1534.00;1581.01
1536.00;1587.57
1538.00;1571.26
1540.00;1573.03
1542.00;1569.79
1544.00;1567.82
1546.00;1572.69
1548.00;1563.21
1550.00;1563.51
1552.00;1570.53
1554.00;1567.07
1556.00;1567.97
1558.00;1563.72
1560.00;1555.10
1562.00;1555.44
1564.00;1558.70
1566.00;1559.51
1568.00;1552.88
1570.00;1561.48
1572.00;1563.71
1574.00;1551.62
1576.00;1552.14
1578.00;1561.15
1580.00;1552.16
1582.00;1554.34
1584.00;1552.75
1586.00;1561.90
1588.00;1550.30
1590.00;1555.16
1592.00;1542.01
1594.00;1538.28
1596.00;1544.97
1598.00;1550.48
1600.00;1548.79
1602.00;1549.89
1604.00;1538.19
1606.00;1555.61
1608.00;1545.60
1610.00;1545.15
1612.00;1543.71
1614.00;1535.87
1616.00;1540.11
1618.00;1545.12
1620.00;1533.16
1622.00;1543.15
1624.00;1551.02
1626.00;1545.10
1628.00;1553.10
1630.00;1552.65
1632.00;1547.13
1634.00;1543.48
1636.00;1535.83
1638.00;1548.05
1640.00;1554.04
1642.00;1557.92
1644.00;1550.64
1646.00;1553.28
1648.00;1546.13
1650.00;1550.71
1652.00;1553.24
1654.00;1549.96
1656.00;1552.47
1658.00;1550.45
1660.00;1550.36
1662.00;1548.69
1664.00;1550.93
1666.00;1539.26
1668.00;1544.14
1670.00;1543.11
1672.00;1548.34
1674.00;1537.39
1676.00;1539.82
1678.00;1535.72
1680.00;1527.16
1682.00;1522.48
1684.00;1515.36
1686.00;1505.75
1688.00;1499.88
1690.00;1496.50
1692.00;1491.38
1694.00;1487.51
1696.00;1474.34
1698.00;1479.15
1700.00;1464.90
1702.00;1460.96
1704.00;1459.46
1706.00;1456.92
1708.00;1443.62
1710.00;1433.64
1712.00;1436.17
1714.00;1429.23
1716.00;1434.65
1718.00;1432.12
1720.00;1427.23
1722.00;1412.59
1724.00;1431.98
1726.00;1425.83
1728.00;1417.70
1730.00;1414.19
1732.00;1402.06
1734.00;1409.05
1736.00;1399.04
1738.00;1389.32
1740.00;1400.32
1742.00;1377.89
1744.00;1387.87
1746.00;1390.99
1748.00;1392.54
1750.00;1389.09
1752.00;1388.04
1754.00;1388.22
1756.00;1390.04
1758.00;1394.12
1760.00;1386.48
1762.00;1379.64
1764.00;1373.44
1766.00;1377.21
1768.00;1371.81
1770.00;1360.88
1772.00;1375.89
1774.00;1364.00
1776.00;1380.74
1778.00;1368.41
1780.00;1364.78
1782.00;1357.04
1784.00;1357.31
1786.00;1360.91
1788.00;1363.40
1790.00;1347.72
1792.00;1340.65
1794.00;1349.99
1796.00;1350.29
1798.00;1362.71
1800.00;1343.82
1802.00;1343.87
1804.00;1342.37
1806.00;1339.68
1808.00;1340.73
1810.00;1337.20
1812.00;1332.82
1814.00;1338.84
1816.00;1337.09
1818.00;1327.36
1820.00;1317.28
1822.00;1326.98
1824.00;1322.95
1826.00;1327.47
1828.00;1327.38
1830.00;1316.54
1832.00;1302.92
1834.00;1309.45
1836.00;1311.41
1838.00;1307.52
1840.00;1308.60
1842.00;1311.20
1844.00;1309.38
1846.00;1299.41
1848.00;1296.70
1850.00;1297.35
1852.00;1295.50
1854.00;1289.83
1856.00;1297.75
1858.00;1285.49
1860.00;1292.98
1862.00;1296.40
1864.00;1280.22
1866.00;1298.69
1868.00;1280.61
1870.00;1278.54
1872.00;1290.66
1874.00;1282.85
1876.00;1273.22
1878.00;1272.60
1880.00;1273.17
1882.00;1270.85
1884.00;1264.69
1886.00;1274.41
1888.00;1262.53
1890.00;1255.41
1892.00;1254.95
1894.00;1255.63
1896.00;1255.09
1898.00;1258.04
1900.00;1256.37
1902.00;1259.86
1904.00;1246.86
1906.00;1245.26
1908.00;1246.43
1910.00;1255.11
1912.00;1247.21
1914.00;1237.74
1916.00;1233.97
1918.00;1242.49
1920.00;1227.49
1922.00;1229.97
1924.00;1225.41
1926.00;1238.04
1928.00;1235.10
1930.00;1213.56
1932.00;1222.12
1934.00;1212.13
1936.00;1228.24
1938.00;1213.33
1940.00;1227.74
1942.00;1221.90
1944.00;1218.82
1946.00;1214.78
1948.00;1219.74
1950.00;1220.90
1952.00;1226.50
1954.00;1203.19
1956.00;1205.49
1958.00;1209.67
1960.00;1217.38
1962.00;1212.07
1964.00;1197.79
1966.00;1192.97
1968.00;1194.40
1970.00;1200.49
1972.00;1189.65
1974.00;1181.59
1976.00;1171.60
1978.00;1192.19
1980.00;1173.75
1982.00;1170.09
1984.00;1179.99
1986.00;1189.68
1988.00;1183.29
1990.00;1190.31
1992.00;1168.51
1994.00;1166.71
1996.00;1179.87
1998.00;1168.97
2000.00;1168.67
2002.00;1171.65
2004.00;1174.23
2006.00;1170.39
2008.00;1169.17
2010.00;1163.94
2012.00;1156.82
2014.00;1157.56
2016.00;1161.39
2018.00;1162.12
2020.00;1153.23
2022.00;1153.53
2024.00;1156.71
2026.00;1148.36
2028.00;1152.11
2030.00;1145.26
2032.00;1136.12
2034.00;1138.80
2036.00;1150.22
2038.00;1146.38
2040.00;1146.06
2042.00;1135.07
2044.00;1128.43
2046.00;1135.52
2048.00;1123.19
2050.00;1148.43
2052.00;1127.20
2054.00;1142.57
2056.00;1123.17
2058.00;1131.76
2060.00;1122.63
2062.00;1136.80
2064.00;1123.74
2066.00;1119.08
2068.00;1119.99
2070.00;1107.71
2072.00;1115.46
2074.00;1107.31
2076.00;1102.70
2078.00;1107.97
2080.00;1114.79
2082.00;1112.77
2084.00;1103.05
2086.00;1118.37
2088.00;1099.76
2090.00;1103.99
2092.00;1089.33
2094.00;1095.81
2096.00;1099.74
2098.00;1102.16
2100.00;1101.92
2102.00;1094.19
2104.00;1098.14
2106.00;1081.68
2108.00;1089.30
2110.00;1075.17
2112.00;1090.80
2114.00;1063.58
2116.00;1091.59
2118.00;1072.39
2120.00;1088.05
2122.00;1067.09
2124.00;1080.52
2126.00;1081.54
2128.00;1070.20
2130.00;1066.14
2132.00;1066.64
2134.00;1068.47
2136.00;1067.54
2138.00;1061.89
2140.00;1073.68
2142.00;1062.65
2144.00;1061.59
2146.00;1058.68
2148.00;1072.31
2150.00;1045.05
2152.00;1066.18
2154.00;1061.87
2156.00;1065.57
2158.00;1056.44
2160.00;1053.47
2162.00;1048.53
2164.00;1045.25
2166.00;1044.88
2168.00;1056.47
2170.00;1040.40
2172.00;1039.86
2174.00;1046.38
2176.00;1041.73
2178.00;1042.73
2180.00;1056.82
2182.00;1026.19
2184.00;1043.43
2186.00;1031.80
2188.00;1037.54
2190.00;1044.13
2192.00;1030.60
2194.00;1023.40
2196.00;1050.03
2198.00;1034.98
2200.00;1036.55
2202.00;1031.94
2204.00;1026.12
2206.00;1023.71
2208.00;1037.87
2210.00;1018.74
2212.00;1028.16
2214.00;1018.74
2216.00;1034.50
2218.00;1010.92
2220.00;1019.11
2222.00;1020.93
2224.00;1011.91
2226.00;1005.78
2228.00;994.43
2230.00;1004.50
2232.00;998.95
2234.00;1001.46
2236.00;1011.05
2238.00;983.35
2240.00;1002.71
2242.00;1004.66
2244.00;1004.69
2246.00;995.86
2248.00;991.11
2250.00;983.69
2252.00;987.36
2254.00;978.30
2256.00;967.74
2258.00;989.46
2260.00;976.79
2262.00;976.47
2264.00;961.67
2266.00;987.51
2268.00;978.36
2270.00;981.28
2272.00;965.26
2274.00;981.29
2276.00;971.66
2278.00;984.95
2280.00;975.83
2282.00;1015.05
2284.00;946.16
2286.00;976.18
2288.00;974.10
2290.00;984.25
2292.00;980.87
2294.00;958.04
2296.00;956.64
2298.00;978.43
2300.00;962.32
[ANALYSIS RESULT]
Analysis_Type;None
